#isoforms=['chrX:153285263-153285128:-@chrX:153285049-153284882:-.A.withRI','chrX:153285263-153285128:-@chrX:153285049-153284882:-.B.dn_chrX:153285263-153285128:-@chrX:153285049-153284882:-.B.up']	exon_lens=('chrX:153285263-153285128:-@chrX:153285049-153284882:-.A.withRI',382),('chrX:153285263-153285128:-@chrX:153285049-153284882:-.B.dn',168),('chrX:153285263-153285128:-@chrX:153285049-153284882:-.B.up',136)	iters=5000	burn_in=500	lag=10	percent_accept=55.78	proposal_type=drift	counts=(0,0):6261,(0,1):3749,(1,0):1599,(1,1):6581	assigned_counts=0:3107,1:8822	chrom=chrX	strand=-	mRNA_starts=153284882,153284882	mRNA_ends=153285263,153285263
sampled_psi	log_score
0.2317,0.7683	-11635.12
0.2321,0.7679	-11635.03
0.2329,0.7671	-11634.85
0.2466,0.7534	-11635.42
0.2346,0.7654	-11634.56
0.2387,0.7613	-11634.29
0.2352,0.7648	-11634.49
0.2392,0.7608	-11634.30
0.2442,0.7558	-11634.84
0.2363,0.7637	-11634.38
0.2309,0.7691	-11635.34
0.2338,0.7662	-11634.69
0.2364,0.7636	-11634.37
0.2467,0.7533	-11635.45
0.2503,0.7497	-11636.68
0.2336,0.7664	-11634.72
0.2428,0.7572	-11634.60
0.2437,0.7563	-11634.76
0.2409,0.7591	-11634.39
0.2407,0.7593	-11634.37
0.2469,0.7531	-11635.49
0.2348,0.7652	-11634.54
0.2380,0.7620	-11634.30
0.2356,0.7644	-11634.44
0.2347,0.7653	-11634.56
0.2336,0.7664	-11634.73
0.2482,0.7518	-11635.90
0.2568,0.7432	-11639.90
0.2429,0.7571	-11634.62
0.2361,0.7639	-11634.40
0.2310,0.7690	-11635.30
0.2427,0.7573	-11634.59
0.2456,0.7544	-11635.16
0.2412,0.7588	-11634.42
0.2389,0.7611	-11634.29
0.2425,0.7575	-11634.57
0.2410,0.7590	-11634.40
0.2420,0.7580	-11634.50
0.2353,0.7647	-11634.48
0.2498,0.7502	-11636.46
0.2292,0.7708	-11635.87
0.2413,0.7587	-11634.43
0.2432,0.7568	-11634.68
0.2352,0.7648	-11634.48
0.2338,0.7662	-11634.69
0.2443,0.7557	-11634.87
0.2461,0.7539	-11635.28
0.2291,0.7709	-11635.88
0.2415,0.7585	-11634.45
0.2368,0.7632	-11634.34
0.2388,0.7612	-11634.29
0.2366,0.7634	-11634.36
0.2463,0.7537	-11635.33
0.2333,0.7667	-11634.77
0.2555,0.7445	-11639.16
0.2431,0.7569	-11634.66
0.2360,0.7640	-11634.40
0.2302,0.7698	-11635.54
0.2443,0.7557	-11634.87
0.2346,0.7654	-11634.57
0.2365,0.7635	-11634.36
0.2365,0.7635	-11634.37
0.2423,0.7577	-11634.53
0.2439,0.7561	-11634.79
0.2459,0.7541	-11635.23
0.2412,0.7588	-11634.42
0.2446,0.7554	-11634.93
0.2391,0.7609	-11634.30
0.2427,0.7573	-11634.60
0.2379,0.7621	-11634.30
0.2437,0.7563	-11634.76
0.2358,0.7642	-11634.42
0.2322,0.7678	-11635.00
0.2371,0.7629	-11634.33
0.2323,0.7677	-11634.99
0.2386,0.7614	-11634.29
0.2306,0.7694	-11635.42
0.2330,0.7670	-11634.83
0.2349,0.7651	-11634.53
0.2425,0.7575	-11634.57
0.2367,0.7633	-11634.35
0.2420,0.7580	-11634.50
0.2315,0.7685	-11635.18
0.2408,0.7592	-11634.38
0.2350,0.7650	-11634.51
0.2468,0.7532	-11635.46
0.2466,0.7534	-11635.40
0.2335,0.7665	-11634.74
0.2402,0.7598	-11634.34
0.2345,0.7655	-11634.58
0.2394,0.7606	-11634.31
0.2405,0.7595	-11634.36
0.2335,0.7665	-11634.73
0.2323,0.7677	-11634.98
0.2445,0.7555	-11634.90
0.2400,0.7600	-11634.33
0.2411,0.7589	-11634.41
0.2431,0.7569	-11634.65
0.2435,0.7565	-11634.72
0.2342,0.7658	-11634.63
0.2475,0.7525	-11635.68
0.2438,0.7562	-11634.78
0.2319,0.7681	-11635.08
0.2410,0.7590	-11634.40
0.2366,0.7634	-11634.36
0.2355,0.7645	-11634.46
0.2403,0.7597	-11634.35
0.2348,0.7652	-11634.54
0.2387,0.7613	-11634.29
0.2423,0.7577	-11634.54
0.2400,0.7600	-11634.33
0.2348,0.7652	-11634.54
0.2311,0.7689	-11635.28
0.2467,0.7533	-11635.44
0.2416,0.7584	-11634.45
0.2420,0.7580	-11634.50
0.2326,0.7674	-11634.92
0.2364,0.7636	-11634.38
0.2384,0.7616	-11634.29
0.2395,0.7605	-11634.31
0.2374,0.7626	-11634.32
0.2354,0.7646	-11634.47
0.2365,0.7635	-11634.37
0.2440,0.7560	-11634.81
0.2410,0.7590	-11634.40
0.2458,0.7542	-11635.21
0.2384,0.7616	-11634.29
0.2401,0.7599	-11634.34
0.2356,0.7644	-11634.44
0.2373,0.7627	-11634.32
0.2362,0.7638	-11634.39
0.2348,0.7652	-11634.54
0.2422,0.7578	-11634.52
0.2418,0.7582	-11634.48
0.2358,0.7642	-11634.43
0.2462,0.7538	-11635.31
0.2375,0.7625	-11634.31
0.2366,0.7634	-11634.36
0.2297,0.7703	-11635.67
0.2362,0.7638	-11634.38
0.2323,0.7677	-11634.98
0.2395,0.7605	-11634.31
0.2350,0.7650	-11634.52
0.2475,0.7525	-11635.66
0.2260,0.7740	-11637.11
0.2492,0.7508	-11636.26
0.2402,0.7598	-11634.34
0.2363,0.7637	-11634.38
0.2385,0.7615	-11634.29
0.2429,0.7571	-11634.63
0.2348,0.7652	-11634.53
0.2413,0.7587	-11634.43
0.2466,0.7534	-11635.40
0.2415,0.7585	-11634.44
0.2344,0.7656	-11634.60
0.2438,0.7562	-11634.78
0.2388,0.7612	-11634.29
0.2479,0.7521	-11635.80
0.2274,0.7726	-11636.51
0.2377,0.7623	-11634.31
0.2285,0.7715	-11636.10
0.2445,0.7555	-11634.92
0.2337,0.7663	-11634.70
0.2444,0.7556	-11634.90
0.2312,0.7688	-11635.25
0.2436,0.7564	-11634.73
0.2311,0.7689	-11635.26
0.2404,0.7596	-11634.35
0.2358,0.7642	-11634.42
0.2452,0.7548	-11635.06
0.2306,0.7694	-11635.41
0.2351,0.7649	-11634.50
0.2519,0.7481	-11637.35
0.2398,0.7602	-11634.32
0.2337,0.7663	-11634.70
0.2366,0.7634	-11634.36
0.2302,0.7698	-11635.54
0.2341,0.7659	-11634.64
0.2439,0.7561	-11634.78
0.2345,0.7655	-11634.57
0.2439,0.7561	-11634.80
0.2386,0.7614	-11634.29
0.2386,0.7614	-11634.29
0.2361,0.7639	-11634.40
0.2344,0.7656	-11634.60
0.2378,0.7622	-11634.30
0.2433,0.7567	-11634.68
0.2374,0.7626	-11634.32
0.2475,0.7525	-11635.67
0.2462,0.7538	-11635.30
0.2364,0.7636	-11634.37
0.2436,0.7564	-11634.73
0.2294,0.7706	-11635.77
0.2372,0.7628	-11634.32
0.2419,0.7581	-11634.49
0.2415,0.7585	-11634.45
0.2308,0.7692	-11635.35
0.2403,0.7597	-11634.34
0.2367,0.7633	-11634.35
0.2454,0.7546	-11635.09
0.2414,0.7586	-11634.43
0.2405,0.7595	-11634.36
0.2415,0.7585	-11634.45
0.2293,0.7707	-11635.80
0.2394,0.7606	-11634.31
0.2474,0.7526	-11635.65
0.2439,0.7561	-11634.78
0.2346,0.7654	-11634.57
0.2399,0.7601	-11634.32
0.2380,0.7620	-11634.30
0.2366,0.7634	-11634.36
0.2358,0.7642	-11634.43
0.2404,0.7596	-11634.35
0.2374,0.7626	-11634.32
0.2371,0.7629	-11634.33
0.2307,0.7693	-11635.38
0.2430,0.7570	-11634.64
0.2323,0.7677	-11634.99
0.2383,0.7617	-11634.29
0.2389,0.7611	-11634.29
0.2336,0.7664	-11634.72
0.2430,0.7570	-11634.64
0.2328,0.7672	-11634.87
0.2353,0.7647	-11634.48
0.2514,0.7486	-11637.11
0.2350,0.7650	-11634.51
0.2330,0.7670	-11634.83
0.2318,0.7682	-11635.09
0.2457,0.7543	-11635.17
0.2439,0.7561	-11634.79
0.2388,0.7612	-11634.29
0.2427,0.7573	-11634.60
0.2389,0.7611	-11634.29
0.2406,0.7594	-11634.37
0.2406,0.7594	-11634.37
0.2259,0.7741	-11637.16
0.2387,0.7613	-11634.29
0.2307,0.7693	-11635.40
0.2410,0.7590	-11634.40
0.2371,0.7629	-11634.33
0.2379,0.7621	-11634.30
0.2348,0.7652	-11634.53
0.2402,0.7598	-11634.34
0.2362,0.7638	-11634.39
0.2442,0.7558	-11634.86
0.2371,0.7629	-11634.33
0.2349,0.7651	-11634.53
0.2453,0.7547	-11635.08
0.2349,0.7651	-11634.53
0.2393,0.7607	-11634.30
0.2426,0.7574	-11634.58
0.2380,0.7620	-11634.30
0.2404,0.7596	-11634.35
0.2314,0.7686	-11635.19
0.2365,0.7635	-11634.36
0.2464,0.7536	-11635.36
0.2370,0.7630	-11634.34
0.2283,0.7717	-11636.18
0.2522,0.7478	-11637.48
0.2421,0.7579	-11634.51
0.2274,0.7726	-11636.50
0.2350,0.7650	-11634.51
0.2502,0.7498	-11636.63
0.2435,0.7565	-11634.72
0.2405,0.7595	-11634.36
0.2365,0.7635	-11634.36
0.2453,0.7547	-11635.08
0.2468,0.7532	-11635.48
0.2470,0.7530	-11635.52
0.2381,0.7619	-11634.29
0.2352,0.7648	-11634.49
0.2280,0.7720	-11636.30
0.2372,0.7628	-11634.32
0.2431,0.7569	-11634.66
0.2400,0.7600	-11634.33
0.2390,0.7610	-11634.30
0.2377,0.7623	-11634.31
0.2329,0.7671	-11634.85
0.2400,0.7600	-11634.33
0.2457,0.7543	-11635.19
0.2310,0.7690	-11635.31
0.2326,0.7674	-11634.91
0.2414,0.7586	-11634.44
0.2398,0.7602	-11634.32
0.2377,0.7623	-11634.31
0.2485,0.7515	-11635.99
0.2286,0.7714	-11636.06
0.2331,0.7669	-11634.82
0.2444,0.7556	-11634.88
0.2321,0.7679	-11635.02
0.2455,0.7545	-11635.12
0.2378,0.7622	-11634.30
0.2430,0.7570	-11634.64
0.2286,0.7714	-11636.08
0.2407,0.7593	-11634.37
0.2505,0.7495	-11636.75
0.2298,0.7702	-11635.64
0.2356,0.7644	-11634.44
0.2374,0.7626	-11634.31
0.2378,0.7622	-11634.30
0.2351,0.7649	-11634.50
0.2258,0.7742	-11637.20
0.2260,0.7740	-11637.10
0.2472,0.7528	-11635.57
0.2344,0.7656	-11634.60
0.2338,0.7662	-11634.69
0.2379,0.7621	-11634.30
0.2450,0.7550	-11635.02
0.2360,0.7640	-11634.40
0.2376,0.7624	-11634.31
0.2382,0.7618	-11634.29
0.2476,0.7524	-11635.70
0.2359,0.7641	-11634.42
0.2313,0.7687	-11635.23
0.2440,0.7560	-11634.81
0.2347,0.7653	-11634.56
0.2376,0.7624	-11634.31
0.2310,0.7690	-11635.31
0.2361,0.7639	-11634.40
0.2398,0.7602	-11634.32
0.2409,0.7591	-11634.39
0.2456,0.7544	-11635.15
0.2360,0.7640	-11634.41
0.2358,0.7642	-11634.42
0.2344,0.7656	-11634.59
0.2333,0.7667	-11634.77
0.2412,0.7588	-11634.42
0.2365,0.7635	-11634.36
0.2351,0.7649	-11634.51
0.2312,0.7688	-11635.24
0.2323,0.7677	-11634.99
0.2355,0.7645	-11634.46
0.2385,0.7615	-11634.29
0.2344,0.7656	-11634.60
0.2484,0.7516	-11635.97
0.2442,0.7558	-11634.85
0.2465,0.7535	-11635.39
0.2344,0.7656	-11634.59
0.2440,0.7560	-11634.82
0.2358,0.7642	-11634.43
0.2365,0.7635	-11634.36
0.2474,0.7526	-11635.65
0.2422,0.7578	-11634.53
0.2467,0.7533	-11635.44
0.2371,0.7629	-11634.33
0.2401,0.7599	-11634.33
0.2416,0.7584	-11634.45
0.2430,0.7570	-11634.63
0.2304,0.7696	-11635.48
0.2433,0.7567	-11634.69
0.2347,0.7653	-11634.55
0.2397,0.7603	-11634.31
0.2397,0.7603	-11634.32
0.2439,0.7561	-11634.78
0.2391,0.7609	-11634.30
0.2321,0.7679	-11635.03
0.2337,0.7663	-11634.71
0.2485,0.7515	-11636.00
0.2464,0.7536	-11635.35
0.2359,0.7641	-11634.41
0.2377,0.7623	-11634.31
0.2386,0.7614	-11634.29
0.2460,0.7540	-11635.25
0.2356,0.7644	-11634.44
0.2306,0.7694	-11635.41
0.2383,0.7617	-11634.29
0.2255,0.7745	-11637.33
0.2373,0.7627	-11634.32
0.2477,0.7523	-11635.74
0.2416,0.7584	-11634.45
0.2460,0.7540	-11635.24
0.2406,0.7594	-11634.37
0.2426,0.7574	-11634.57
0.2377,0.7623	-11634.31
0.2436,0.7564	-11634.74
0.2453,0.7547	-11635.08
0.2351,0.7649	-11634.51
0.2349,0.7651	-11634.53
0.2410,0.7590	-11634.40
0.2321,0.7679	-11635.04
0.2425,0.7575	-11634.56
0.2419,0.7581	-11634.49
0.2331,0.7669	-11634.81
0.2350,0.7650	-11634.52
0.2299,0.7701	-11635.62
0.2391,0.7609	-11634.30
0.2447,0.7553	-11634.94
0.2332,0.7668	-11634.80
0.2427,0.7573	-11634.59
0.2372,0.7628	-11634.32
0.2348,0.7652	-11634.54
0.2351,0.7649	-11634.50
0.2418,0.7582	-11634.48
0.2407,0.7593	-11634.38
0.2418,0.7582	-11634.48
0.2391,0.7609	-11634.30
0.2360,0.7640	-11634.41
0.2542,0.7458	-11638.46
0.2422,0.7578	-11634.53
0.2359,0.7641	-11634.41
0.2400,0.7600	-11634.33
0.2289,0.7711	-11635.95
0.2378,0.7622	-11634.30
0.2379,0.7621	-11634.30
0.2402,0.7598	-11634.34
0.2431,0.7569	-11634.66
0.2483,0.7517	-11635.93
0.2315,0.7685	-11635.18
0.2413,0.7587	-11634.42
0.2305,0.7695	-11635.44
0.2401,0.7599	-11634.33
0.2344,0.7656	-11634.60
0.2360,0.7640	-11634.41
0.2401,0.7599	-11634.34
0.2419,0.7581	-11634.49
0.2321,0.7679	-11635.02
0.2425,0.7575	-11634.57
0.2406,0.7594	-11634.37
0.2348,0.7652	-11634.54
0.2477,0.7523	-11635.73
0.2387,0.7613	-11634.29
0.2418,0.7582	-11634.48
0.2471,0.7529	-11635.56
0.2496,0.7504	-11636.40
0.2363,0.7637	-11634.38
0.2334,0.7666	-11634.77
0.2414,0.7586	-11634.44
0.2298,0.7702	-11635.64
0.2443,0.7557	-11634.87
0.2434,0.7566	-11634.70
0.2357,0.7643	-11634.43
0.2403,0.7597	-11634.34
0.2336,0.7664	-11634.72
0.2420,0.7580	-11634.51
0.2419,0.7581	-11634.49
0.2392,0.7608	-11634.30
0.2301,0.7699	-11635.57
0.2357,0.7643	-11634.44
0.2461,0.7539	-11635.27
0.2472,0.7528	-11635.58
0.2374,0.7626	-11634.32
0.2366,0.7634	-11634.36
0.2297,0.7703	-11635.70
0.2310,0.7690	-11635.31
0.2445,0.7555	-11634.91
0.2354,0.7646	-11634.47
0.2351,0.7649	-11634.51
0.2369,0.7631	-11634.34
0.2399,0.7601	-11634.32
0.2420,0.7580	-11634.50
0.2398,0.7602	-11634.32
0.2389,0.7611	-11634.29
0.2399,0.7601	-11634.32
0.2305,0.7695	-11635.45
0.2307,0.7693	-11635.38
0.2419,0.7581	-11634.49
0.2295,0.7705	-11635.76
0.2392,0.7608	-11634.30
0.2374,0.7626	-11634.32
0.2325,0.7675	-11634.94
0.2334,0.7666	-11634.77
0.2419,0.7581	-11634.48
0.2320,0.7680	-11635.06
0.2333,0.7667	-11634.79
0.2446,0.7554	-11634.92
0.2435,0.7565	-11634.72
0.2430,0.7570	-11634.64
0.2346,0.7654	-11634.57
0.2391,0.7609	-11634.30
0.2367,0.7633	-11634.35
0.2417,0.7583	-11634.46
0.2348,0.7652	-11634.54
0.2332,0.7668	-11634.80
0.2468,0.7532	-11635.48
0.2341,0.7659	-11634.64
0.2383,0.7617	-11634.29
0.2400,0.7600	-11634.33
0.2375,0.7625	-11634.31
0.2284,0.7716	-11636.14
0.2335,0.7665	-11634.75
0.2377,0.7623	-11634.31
0.2413,0.7587	-11634.42
0.2449,0.7551	-11634.99
0.2408,0.7592	-11634.38
0.2363,0.7637	-11634.38
0.2465,0.7535	-11635.38
0.2369,0.7631	-11634.34
0.2348,0.7652	-11634.54
0.2421,0.7579	-11634.51
0.2340,0.7660	-11634.65
0.2366,0.7634	-11634.36
0.2374,0.7626	-11634.31
0.2397,0.7603	-11634.32
0.2469,0.7531	-11635.50
0.2416,0.7584	-11634.46
0.2401,0.7599	-11634.34
0.2387,0.7613	-11634.29
0.2370,0.7630	-11634.34
0.2325,0.7675	-11634.93
0.2406,0.7594	-11634.37
0.2427,0.7573	-11634.59
0.2366,0.7634	-11634.36
0.2361,0.7639	-11634.40
0.2393,0.7607	-11634.30
0.2456,0.7544	-11635.16
0.2339,0.7661	-11634.67
0.2364,0.7636	-11634.37
0.2403,0.7597	-11634.35
0.2454,0.7546	-11635.10
0.2447,0.7553	-11634.95
0.2400,0.7600	-11634.33
0.2467,0.7533	-11635.43
0.2382,0.7618	-11634.29
0.2428,0.7572	-11634.61
0.2353,0.7647	-11634.48
0.2397,0.7603	-11634.32
0.2437,0.7563	-11634.75
0.2387,0.7613	-11634.29
0.2419,0.7581	-11634.48
0.2447,0.7553	-11634.96
0.2420,0.7580	-11634.50
0.2513,0.7487	-11637.09
0.2417,0.7583	-11634.47
0.2366,0.7634	-11634.36
0.2374,0.7626	-11634.31
0.2351,0.7649	-11634.50
0.2443,0.7557	-11634.88
0.2366,0.7634	-11634.36
0.2411,0.7589	-11634.41
0.2389,0.7611	-11634.29
0.2294,0.7706	-11635.77
0.2325,0.7675	-11634.94
0.2406,0.7594	-11634.37
0.2393,0.7607	-11634.30
0.2410,0.7590	-11634.40
0.2309,0.7691	-11635.34
0.2385,0.7615	-11634.29
0.2338,0.7662	-11634.69
0.2300,0.7700	-11635.60
0.2351,0.7649	-11634.50
0.2400,0.7600	-11634.33
0.2321,0.7679	-11635.03
0.2382,0.7618	-11634.29
0.2381,0.7619	-11634.30
0.2359,0.7641	-11634.41
0.2389,0.7611	-11634.29
0.2385,0.7615	-11634.29
0.2440,0.7560	-11634.80
0.2367,0.7633	-11634.35
0.2373,0.7627	-11634.32
0.2335,0.7665	-11634.74
0.2342,0.7658	-11634.63
0.2398,0.7602	-11634.32
0.2384,0.7616	-11634.29
0.2375,0.7625	-11634.31
0.2417,0.7583	-11634.46
0.2400,0.7600	-11634.33
0.2377,0.7623	-11634.30
0.2294,0.7706	-11635.80
0.2495,0.7505	-11636.36
0.2465,0.7535	-11635.38
0.2429,0.7571	-11634.63
0.2404,0.7596	-11634.36
0.2378,0.7622	-11634.30
0.2405,0.7595	-11634.36
0.2495,0.7505	-11636.35
0.2435,0.7565	-11634.72
0.2390,0.7610	-11634.30
0.2370,0.7630	-11634.33
0.2310,0.7690	-11635.30
0.2348,0.7652	-11634.54
0.2318,0.7682	-11635.10
0.2354,0.7646	-11634.47
0.2350,0.7650	-11634.52
0.2453,0.7547	-11635.09
0.2476,0.7524	-11635.71
0.2340,0.7660	-11634.65
0.2385,0.7615	-11634.29
0.2359,0.7641	-11634.42
0.2332,0.7668	-11634.79
0.2447,0.7553	-11634.94
0.2325,0.7675	-11634.95
0.2432,0.7568	-11634.68
0.2420,0.7580	-11634.50
0.2436,0.7564	-11634.74
0.2465,0.7535	-11635.40
0.2304,0.7696	-11635.46
0.2320,0.7680	-11635.05
0.2371,0.7629	-11634.33
0.2321,0.7679	-11635.02
0.2271,0.7729	-11636.65
0.2429,0.7571	-11634.62
0.2328,0.7672	-11634.88
0.2361,0.7639	-11634.40
0.2458,0.7542	-11635.19
0.2361,0.7639	-11634.40
0.2367,0.7633	-11634.35
0.2447,0.7553	-11634.96
0.2491,0.7509	-11636.22
0.2412,0.7588	-11634.42
0.2405,0.7595	-11634.36
0.2426,0.7574	-11634.58
0.2421,0.7579	-11634.51
0.2372,0.7628	-11634.32
0.2440,0.7560	-11634.82
0.2313,0.7687	-11635.22
0.2272,0.7728	-11636.61
0.2394,0.7606	-11634.30
0.2466,0.7534	-11635.41
0.2383,0.7617	-11634.29
0.2358,0.7642	-11634.42
0.2443,0.7557	-11634.87
0.2367,0.7633	-11634.35
0.2416,0.7584	-11634.45
0.2368,0.7632	-11634.35
0.2308,0.7692	-11635.36
0.2375,0.7625	-11634.31
0.2465,0.7535	-11635.40
0.2405,0.7595	-11634.36
0.2447,0.7553	-11634.94
0.2365,0.7635	-11634.37
0.2304,0.7696	-11635.47
0.2395,0.7605	-11634.31
0.2384,0.7616	-11634.29
0.2321,0.7679	-11635.04
0.2371,0.7629	-11634.33
0.2461,0.7539	-11635.28
0.2478,0.7522	-11635.78
0.2431,0.7569	-11634.65
0.2373,0.7627	-11634.32
0.2438,0.7562	-11634.77
0.2392,0.7608	-11634.30
0.2410,0.7590	-11634.40
0.2388,0.7612	-11634.29
0.2401,0.7599	-11634.34
0.2376,0.7624	-11634.31
0.2466,0.7534	-11635.41
0.2386,0.7614	-11634.29
0.2365,0.7635	-11634.37
0.2331,0.7669	-11634.81
0.2263,0.7737	-11637.00
0.2356,0.7644	-11634.44
0.2427,0.7573	-11634.60
0.2413,0.7587	-11634.43
0.2476,0.7524	-11635.71
0.2445,0.7555	-11634.91
0.2412,0.7588	-11634.42
0.2326,0.7674	-11634.92
0.2312,0.7688	-11635.24
0.2539,0.7461	-11638.33
0.2422,0.7578	-11634.53
0.2433,0.7567	-11634.68
0.2388,0.7612	-11634.29
0.2403,0.7597	-11634.35
0.2415,0.7585	-11634.45
0.2357,0.7643	-11634.43
0.2426,0.7574	-11634.59
0.2410,0.7590	-11634.40
0.2446,0.7554	-11634.94
0.2394,0.7606	-11634.30
0.2332,0.7668	-11634.81
0.2334,0.7666	-11634.75
0.2305,0.7695	-11635.45
0.2306,0.7694	-11635.42
0.2359,0.7641	-11634.41
0.2436,0.7564	-11634.74
0.2298,0.7702	-11635.65
0.2352,0.7648	-11634.49
0.2427,0.7573	-11634.59
0.2288,0.7712	-11635.98
0.2363,0.7637	-11634.38
0.2352,0.7648	-11634.49
0.2391,0.7609	-11634.30
0.2365,0.7635	-11634.37
0.2434,0.7566	-11634.71
0.2415,0.7585	-11634.45
0.2400,0.7600	-11634.33
0.2407,0.7593	-11634.38
0.2327,0.7673	-11634.90
0.2317,0.7683	-11635.12
0.2409,0.7591	-11634.39
0.2368,0.7632	-11634.34
0.2440,0.7560	-11634.80
0.2411,0.7589	-11634.40
0.2355,0.7645	-11634.46
0.2365,0.7635	-11634.36
0.2516,0.7484	-11637.20
0.2447,0.7553	-11634.95
0.2348,0.7652	-11634.54
0.2462,0.7538	-11635.32
0.2298,0.7702	-11635.64
0.2405,0.7595	-11634.36
0.2288,0.7712	-11635.98
0.2423,0.7577	-11634.54
0.2378,0.7622	-11634.30
0.2423,0.7577	-11634.54
0.2439,0.7561	-11634.79
0.2293,0.7707	-11635.82
0.2452,0.7548	-11635.06
0.2417,0.7583	-11634.47
0.2352,0.7648	-11634.49
0.2338,0.7662	-11634.69
0.2382,0.7618	-11634.29
0.2308,0.7692	-11635.37
0.2379,0.7621	-11634.30
0.2341,0.7659	-11634.64
0.2340,0.7660	-11634.66
0.2369,0.7631	-11634.34
0.2372,0.7628	-11634.32
0.2411,0.7589	-11634.41
0.2427,0.7573	-11634.59
0.2394,0.7606	-11634.30
0.2449,0.7551	-11634.99
0.2430,0.7570	-11634.63
0.2352,0.7648	-11634.49
0.2337,0.7663	-11634.71
0.2344,0.7656	-11634.59
0.2344,0.7656	-11634.59
0.2359,0.7641	-11634.41
0.2401,0.7599	-11634.34
0.2358,0.7642	-11634.42
0.2312,0.7688	-11635.26
0.2353,0.7647	-11634.48
0.2524,0.7476	-11637.59
0.2420,0.7580	-11634.50
0.2391,0.7609	-11634.30
0.2417,0.7583	-11634.47
0.2449,0.7551	-11635.00
0.2369,0.7631	-11634.34
0.2453,0.7547	-11635.09
0.2397,0.7603	-11634.32
0.2365,0.7635	-11634.36
0.2424,0.7576	-11634.55
0.2429,0.7571	-11634.62
0.2360,0.7640	-11634.40
0.2360,0.7640	-11634.41
0.2462,0.7538	-11635.30
0.2409,0.7591	-11634.39
0.2529,0.7471	-11637.79
0.2408,0.7592	-11634.38
0.2383,0.7617	-11634.29
0.2378,0.7622	-11634.30
0.2443,0.7557	-11634.87
0.2379,0.7621	-11634.30
0.2482,0.7518	-11635.91
0.2472,0.7528	-11635.59
0.2401,0.7599	-11634.33
0.2287,0.7713	-11636.02
0.2377,0.7623	-11634.30
0.2364,0.7636	-11634.37
0.2395,0.7605	-11634.31
0.2316,0.7684	-11635.15
0.2303,0.7697	-11635.51
0.2348,0.7652	-11634.54
0.2353,0.7647	-11634.47
0.2361,0.7639	-11634.40
0.2435,0.7565	-11634.73
0.2494,0.7506	-11636.32
0.2408,0.7592	-11634.39
0.2363,0.7637	-11634.38
0.2347,0.7653	-11634.55
0.2344,0.7656	-11634.59
0.2312,0.7688	-11635.26
0.2454,0.7546	-11635.11
0.2441,0.7559	-11634.84
0.2410,0.7590	-11634.40
0.2522,0.7478	-11637.48
0.2421,0.7579	-11634.51
0.2451,0.7549	-11635.04
0.2370,0.7630	-11634.34
0.2469,0.7531	-11635.51
0.2409,0.7591	-11634.39
0.2394,0.7606	-11634.30
0.2332,0.7668	-11634.79
0.2374,0.7626	-11634.32
0.2315,0.7685	-11635.16
0.2339,0.7661	-11634.68
0.2383,0.7617	-11634.29
0.2357,0.7643	-11634.44
0.2345,0.7655	-11634.58
0.2393,0.7607	-11634.30
0.2391,0.7609	-11634.30
0.2355,0.7645	-11634.45
0.2401,0.7599	-11634.33
0.2358,0.7642	-11634.42
0.2363,0.7637	-11634.38
0.2405,0.7595	-11634.36
0.2432,0.7568	-11634.66
0.2339,0.7661	-11634.68
0.2366,0.7634	-11634.36
0.2351,0.7649	-11634.50
0.2395,0.7605	-11634.31
0.2417,0.7583	-11634.46
0.2461,0.7539	-11635.29
0.2444,0.7556	-11634.88
0.2377,0.7623	-11634.31
0.2376,0.7624	-11634.31
0.2420,0.7580	-11634.50
0.2454,0.7546	-11635.10
0.2354,0.7646	-11634.47
0.2410,0.7590	-11634.40
0.2344,0.7656	-11634.59
0.2447,0.7553	-11634.94
0.2451,0.7549	-11635.04
0.2364,0.7636	-11634.37
0.2370,0.7630	-11634.34
0.2283,0.7717	-11636.16
0.2414,0.7586	-11634.43
0.2397,0.7603	-11634.32
0.2395,0.7605	-11634.31
0.2335,0.7665	-11634.74
0.2538,0.7462	-11638.24
0.2463,0.7537	-11635.32
0.2371,0.7629	-11634.33
0.2334,0.7666	-11634.75
0.2387,0.7613	-11634.29
0.2384,0.7616	-11634.29
0.2361,0.7639	-11634.40
0.2407,0.7593	-11634.37
0.2442,0.7558	-11634.85
0.2397,0.7603	-11634.32
0.2342,0.7658	-11634.63
0.2400,0.7600	-11634.33
0.2415,0.7585	-11634.45
0.2437,0.7563	-11634.75
0.2304,0.7696	-11635.46
0.2342,0.7658	-11634.63
0.2334,0.7666	-11634.76
0.2496,0.7504	-11636.40
0.2293,0.7707	-11635.80
0.2441,0.7559	-11634.84
0.2353,0.7647	-11634.47
0.2376,0.7624	-11634.31
0.2339,0.7661	-11634.67
0.2412,0.7588	-11634.42
0.2344,0.7656	-11634.59
0.2352,0.7648	-11634.49
0.2414,0.7586	-11634.43
0.2416,0.7584	-11634.46
0.2284,0.7716	-11636.14
0.2437,0.7563	-11634.76
0.2485,0.7515	-11636.01
0.2463,0.7537	-11635.34
0.2336,0.7664	-11634.72
0.2336,0.7664	-11634.72
0.2481,0.7519	-11635.85
0.2425,0.7575	-11634.57
0.2353,0.7647	-11634.47
0.2303,0.7697	-11635.50
0.2411,0.7589	-11634.41
0.2368,0.7632	-11634.35
0.2419,0.7581	-11634.49
0.2462,0.7538	-11635.30
0.2420,0.7580	-11634.50
0.2367,0.7633	-11634.35
0.2270,0.7730	-11636.70
0.2308,0.7692	-11635.37
0.2373,0.7627	-11634.32
0.2453,0.7547	-11635.07
0.2355,0.7645	-11634.45
0.2332,0.7668	-11634.81
0.2429,0.7571	-11634.62
0.2279,0.7721	-11636.34
0.2484,0.7516	-11635.96
0.2333,0.7667	-11634.78
0.2389,0.7611	-11634.29
0.2415,0.7585	-11634.44
0.2374,0.7626	-11634.31
0.2335,0.7665	-11634.73
0.2363,0.7637	-11634.38
0.2341,0.7659	-11634.64
0.2374,0.7626	-11634.32
0.2448,0.7552	-11634.97
0.2336,0.7664	-11634.72
0.2303,0.7697	-11635.49
0.2411,0.7589	-11634.41
0.2386,0.7614	-11634.29
0.2360,0.7640	-11634.41
0.2375,0.7625	-11634.31
0.2423,0.7577	-11634.54
0.2290,0.7710	-11635.92
0.2452,0.7548	-11635.06
0.2364,0.7636	-11634.37
0.2369,0.7631	-11634.34
0.2465,0.7535	-11635.38
0.2364,0.7636	-11634.37
0.2406,0.7594	-11634.37
0.2406,0.7594	-11634.37
0.2308,0.7692	-11635.37
0.2477,0.7523	-11635.73
0.2338,0.7662	-11634.69
0.2354,0.7646	-11634.46
0.2484,0.7516	-11635.95
0.2350,0.7650	-11634.51
0.2339,0.7661	-11634.68
0.2460,0.7540	-11635.25
0.2399,0.7601	-11634.32
0.2333,0.7667	-11634.77
0.2339,0.7661	-11634.67
0.2349,0.7651	-11634.52
0.2445,0.7555	-11634.91
0.2380,0.7620	-11634.30
0.2346,0.7654	-11634.56
0.2315,0.7685	-11635.17
0.2374,0.7626	-11634.31
0.2361,0.7639	-11634.39
0.2342,0.7658	-11634.63
0.2403,0.7597	-11634.35
0.2318,0.7682	-11635.10
0.2393,0.7607	-11634.30
0.2360,0.7640	-11634.41
0.2331,0.7669	-11634.82
0.2311,0.7689	-11635.28
0.2448,0.7552	-11634.98
0.2376,0.7624	-11634.31
0.2350,0.7650	-11634.52
0.2386,0.7614	-11634.29
0.2378,0.7622	-11634.30
0.2372,0.7628	-11634.32
0.2394,0.7606	-11634.31
0.2475,0.7525	-11635.67
0.2430,0.7570	-11634.64
0.2408,0.7592	-11634.38
0.2292,0.7708	-11635.85
0.2331,0.7669	-11634.81
0.2360,0.7640	-11634.41
0.2475,0.7525	-11635.67
0.2422,0.7578	-11634.53
0.2386,0.7614	-11634.29
0.2429,0.7571	-11634.63
0.2431,0.7569	-11634.65
0.2424,0.7576	-11634.55
0.2382,0.7618	-11634.29
0.2305,0.7695	-11635.45
0.2356,0.7644	-11634.45
0.2358,0.7642	-11634.42
0.2413,0.7587	-11634.43
0.2331,0.7669	-11634.81
0.2306,0.7694	-11635.42
0.2303,0.7697	-11635.49
0.2386,0.7614	-11634.29
0.2381,0.7619	-11634.30
0.2361,0.7639	-11634.39
0.2367,0.7633	-11634.35
0.2295,0.7705	-11635.75
0.2398,0.7602	-11634.32
0.2271,0.7729	-11636.65
0.2322,0.7678	-11635.01
0.2376,0.7624	-11634.31
0.2387,0.7613	-11634.29
0.2459,0.7541	-11635.24
0.2434,0.7566	-11634.70
0.2444,0.7556	-11634.89
0.2427,0.7573	-11634.59
0.2467,0.7533	-11635.44
0.2434,0.7566	-11634.70
0.2416,0.7584	-11634.46
0.2453,0.7547	-11635.08
0.2382,0.7618	-11634.29
0.2387,0.7613	-11634.29
0.2351,0.7649	-11634.50
0.2250,0.7750	-11637.62
0.2394,0.7606	-11634.31
0.2338,0.7662	-11634.70
0.2421,0.7579	-11634.51
0.2396,0.7604	-11634.31
0.2425,0.7575	-11634.56
0.2269,0.7731	-11636.71
0.2341,0.7659	-11634.65
0.2446,0.7554	-11634.93
0.2331,0.7669	-11634.81
0.2328,0.7672	-11634.88
0.2448,0.7552	-11634.96
0.2398,0.7602	-11634.32
0.2351,0.7649	-11634.50
0.2316,0.7684	-11635.16
0.2440,0.7560	-11634.81
0.2420,0.7580	-11634.50
0.2451,0.7549	-11635.03
0.2520,0.7480	-11637.37
0.2335,0.7665	-11634.74
0.2433,0.7567	-11634.68
0.2466,0.7534	-11635.40
0.2438,0.7562	-11634.77
0.2371,0.7629	-11634.33
0.2416,0.7584	-11634.46
0.2414,0.7586	-11634.43
0.2417,0.7583	-11634.46
0.2449,0.7551	-11635.00
0.2371,0.7629	-11634.33
0.2367,0.7633	-11634.35
0.2375,0.7625	-11634.31
0.2268,0.7732	-11636.77
0.2345,0.7655	-11634.58
0.2302,0.7698	-11635.55
0.2469,0.7531	-11635.51
0.2373,0.7627	-11634.32
0.2359,0.7641	-11634.41
0.2374,0.7626	-11634.32
0.2400,0.7600	-11634.33
0.2405,0.7595	-11634.36
0.2369,0.7631	-11634.34
0.2503,0.7497	-11636.65
0.2327,0.7673	-11634.89
0.2473,0.7527	-11635.60
0.2447,0.7553	-11634.95
0.2305,0.7695	-11635.43
0.2439,0.7561	-11634.80
0.2341,0.7659	-11634.64
0.2471,0.7529	-11635.54
0.2416,0.7584	-11634.46
0.2367,0.7633	-11634.35
0.2326,0.7674	-11634.92
0.2365,0.7635	-11634.37
0.2378,0.7622	-11634.30
0.2389,0.7611	-11634.29
0.2431,0.7569	-11634.65
0.2407,0.7593	-11634.38
0.2353,0.7647	-11634.48
0.2317,0.7683	-11635.12
0.2471,0.7529	-11635.54
0.2351,0.7649	-11634.50
0.2329,0.7671	-11634.86
0.2409,0.7591	-11634.39
0.2351,0.7649	-11634.50
0.2422,0.7578	-11634.53
0.2362,0.7638	-11634.39
0.2300,0.7700	-11635.60
0.2372,0.7628	-11634.32
0.2320,0.7680	-11635.06
0.2301,0.7699	-11635.56
0.2350,0.7650	-11634.52
0.2364,0.7636	-11634.37
0.2381,0.7619	-11634.29
0.2418,0.7582	-11634.48
0.2443,0.7557	-11634.87
0.2426,0.7574	-11634.57
0.2473,0.7527	-11635.62
0.2383,0.7617	-11634.29
0.2427,0.7573	-11634.59
0.2210,0.7790	-11639.92
0.2315,0.7685	-11635.17
0.2406,0.7594	-11634.36
0.2415,0.7585	-11634.45
0.2412,0.7588	-11634.42
0.2399,0.7601	-11634.32
0.2418,0.7582	-11634.48
0.2389,0.7611	-11634.29
0.2438,0.7562	-11634.78
0.2307,0.7693	-11635.39
0.2386,0.7614	-11634.29
0.2354,0.7646	-11634.46
0.2395,0.7605	-11634.31
0.2401,0.7599	-11634.34
0.2327,0.7673	-11634.89
0.2357,0.7643	-11634.43
0.2435,0.7565	-11634.71
0.2425,0.7575	-11634.57
0.2273,0.7727	-11636.55
0.2374,0.7626	-11634.31
0.2297,0.7703	-11635.67
0.2404,0.7596	-11634.35
0.2431,0.7569	-11634.65
0.2384,0.7616	-11634.29
0.2339,0.7661	-11634.68
0.2350,0.7650	-11634.51
0.2381,0.7619	-11634.30
0.2382,0.7618	-11634.29
0.2252,0.7748	-11637.50
0.2364,0.7636	-11634.37
0.2295,0.7705	-11635.74
0.2361,0.7639	-11634.40
0.2277,0.7723	-11636.38
0.2335,0.7665	-11634.74
0.2424,0.7576	-11634.55
0.2400,0.7600	-11634.33
0.2289,0.7711	-11635.96
0.2306,0.7694	-11635.43
0.2338,0.7662	-11634.68
0.2393,0.7607	-11634.30
0.2349,0.7651	-11634.52
0.2419,0.7581	-11634.49
0.2394,0.7606	-11634.31
0.2360,0.7640	-11634.41
0.2406,0.7594	-11634.37
0.2354,0.7646	-11634.47
0.2421,0.7579	-11634.51
0.2456,0.7544	-11635.14
0.2353,0.7647	-11634.48
0.2399,0.7601	-11634.32
0.2493,0.7507	-11636.26
0.2413,0.7587	-11634.43
0.2395,0.7605	-11634.31
0.2323,0.7677	-11634.99
0.2418,0.7582	-11634.48
0.2412,0.7588	-11634.42
0.2424,0.7576	-11634.55
0.2354,0.7646	-11634.47
0.2367,0.7633	-11634.35
0.2440,0.7560	-11634.81
0.2383,0.7617	-11634.29
0.2405,0.7595	-11634.36
0.2339,0.7661	-11634.67
0.2379,0.7621	-11634.30
0.2444,0.7556	-11634.89
0.2435,0.7565	-11634.71
0.2370,0.7630	-11634.34
0.2436,0.7564	-11634.73
0.2368,0.7632	-11634.35
0.2393,0.7607	-11634.30
0.2269,0.7731	-11636.71
0.2314,0.7686	-11635.19
0.2262,0.7738	-11637.05
0.2450,0.7550	-11635.01
0.2343,0.7657	-11634.60
0.2360,0.7640	-11634.41
0.2402,0.7598	-11634.34
0.2425,0.7575	-11634.57
0.2458,0.7542	-11635.21
0.2412,0.7588	-11634.42
0.2365,0.7635	-11634.37
0.2404,0.7596	-11634.35
0.2422,0.7578	-11634.52
0.2429,0.7571	-11634.62
0.2450,0.7550	-11635.02
0.2357,0.7643	-11634.43
0.2361,0.7639	-11634.40
0.2421,0.7579	-11634.51
0.2334,0.7666	-11634.77
0.2398,0.7602	-11634.32
0.2403,0.7597	-11634.34
0.2397,0.7603	-11634.32
0.2407,0.7593	-11634.37
0.2362,0.7638	-11634.39
0.2328,0.7672	-11634.88
0.2400,0.7600	-11634.33
0.2481,0.7519	-11635.86
0.2400,0.7600	-11634.33
0.2276,0.7724	-11636.42
0.2281,0.7719	-11636.23
0.2366,0.7634	-11634.36
0.2281,0.7719	-11636.25
0.2393,0.7607	-11634.30
0.2474,0.7526	-11635.64
0.2332,0.7668	-11634.80
0.2352,0.7648	-11634.49
0.2458,0.7542	-11635.21
0.2427,0.7573	-11634.59
0.2477,0.7523	-11635.75
0.2385,0.7615	-11634.29
0.2427,0.7573	-11634.59
0.2449,0.7551	-11634.99
0.2382,0.7618	-11634.29
0.2361,0.7639	-11634.40
0.2386,0.7614	-11634.29
0.2345,0.7655	-11634.58
0.2335,0.7665	-11634.73
0.2385,0.7615	-11634.29
0.2423,0.7577	-11634.53
0.2445,0.7555	-11634.90
0.2322,0.7678	-11635.01
0.2268,0.7732	-11636.77
0.2373,0.7627	-11634.32
0.2442,0.7558	-11634.85
0.2446,0.7554	-11634.94
0.2406,0.7594	-11634.37
0.2478,0.7522	-11635.78
0.2541,0.7459	-11638.41
0.2368,0.7632	-11634.35
0.2365,0.7635	-11634.37
0.2468,0.7532	-11635.46
0.2358,0.7642	-11634.42
0.2381,0.7619	-11634.30
0.2394,0.7606	-11634.30
0.2353,0.7647	-11634.47
0.2424,0.7576	-11634.56
0.2357,0.7643	-11634.44
0.2390,0.7610	-11634.30
0.2431,0.7569	-11634.66
0.2280,0.7720	-11636.28
0.2379,0.7621	-11634.30
0.2469,0.7531	-11635.51
0.2383,0.7617	-11634.29
0.2399,0.7601	-11634.32
0.2452,0.7548	-11635.05
0.2298,0.7702	-11635.66
0.2376,0.7624	-11634.31
0.2378,0.7622	-11634.30
0.2377,0.7623	-11634.31
0.2348,0.7652	-11634.54
0.2357,0.7643	-11634.43
0.2391,0.7609	-11634.30
0.2340,0.7660	-11634.66
0.2350,0.7650	-11634.51
0.2398,0.7602	-11634.32
0.2358,0.7642	-11634.42
0.2397,0.7603	-11634.32
0.2358,0.7642	-11634.42
0.2363,0.7637	-11634.38
0.2445,0.7555	-11634.90
0.2424,0.7576	-11634.55
0.2386,0.7614	-11634.29
0.2468,0.7532	-11635.46
0.2434,0.7566	-11634.70
0.2426,0.7574	-11634.57
0.2455,0.7545	-11635.12
0.2381,0.7619	-11634.30
0.2403,0.7597	-11634.34
0.2338,0.7662	-11634.69
0.2303,0.7697	-11635.49
0.2375,0.7625	-11634.31
0.2320,0.7680	-11635.04
0.2388,0.7612	-11634.29
0.2348,0.7652	-11634.54
0.2437,0.7563	-11634.75
0.2318,0.7682	-11635.11
0.2409,0.7591	-11634.39
0.2406,0.7594	-11634.37
0.2378,0.7622	-11634.30
0.2243,0.7757	-11637.94
0.2390,0.7610	-11634.30
0.2342,0.7658	-11634.62
0.2305,0.7695	-11635.44
0.2340,0.7660	-11634.66
0.2347,0.7653	-11634.55
0.2401,0.7599	-11634.33
0.2400,0.7600	-11634.33
0.2412,0.7588	-11634.42
0.2456,0.7544	-11635.15
0.2331,0.7669	-11634.81
0.2384,0.7616	-11634.29
0.2282,0.7718	-11636.20
0.2327,0.7673	-11634.89
0.2368,0.7632	-11634.35
0.2370,0.7630	-11634.33
0.2380,0.7620	-11634.30
0.2419,0.7581	-11634.49
0.2346,0.7654	-11634.56
0.2380,0.7620	-11634.30
0.2499,0.7501	-11636.49
0.2272,0.7728	-11636.61
0.2411,0.7589	-11634.40
0.2356,0.7644	-11634.45
0.2381,0.7619	-11634.30
0.2382,0.7618	-11634.29
0.2318,0.7682	-11635.10
0.2472,0.7528	-11635.59
0.2401,0.7599	-11634.33
0.2317,0.7683	-11635.12
0.2462,0.7538	-11635.31
0.2407,0.7593	-11634.37
0.2418,0.7582	-11634.48
0.2420,0.7580	-11634.50
0.2401,0.7599	-11634.34
0.2443,0.7557	-11634.87
0.2436,0.7564	-11634.73
0.2337,0.7663	-11634.70
0.2332,0.7668	-11634.79
0.2363,0.7637	-11634.38
0.2417,0.7583	-11634.47
0.2427,0.7573	-11634.59
0.2409,0.7591	-11634.39
0.2351,0.7649	-11634.51
0.2455,0.7545	-11635.13
0.2374,0.7626	-11634.32
0.2394,0.7606	-11634.31
0.2463,0.7537	-11635.33
0.2313,0.7687	-11635.23
0.2449,0.7551	-11634.99
0.2390,0.7610	-11634.30
0.2392,0.7608	-11634.30
0.2412,0.7588	-11634.41
0.2334,0.7666	-11634.77
0.2313,0.7687	-11635.22
0.2249,0.7751	-11637.63
0.2370,0.7630	-11634.33
0.2384,0.7616	-11634.29
0.2463,0.7537	-11635.34
0.2391,0.7609	-11634.30
0.2317,0.7683	-11635.13
0.2392,0.7608	-11634.30
0.2432,0.7568	-11634.67
0.2423,0.7577	-11634.54
0.2416,0.7584	-11634.45
0.2372,0.7628	-11634.33
0.2328,0.7672	-11634.87
0.2517,0.7483	-11637.23
0.2453,0.7547	-11635.08
0.2381,0.7619	-11634.29
0.2383,0.7617	-11634.29
0.2458,0.7542	-11635.19
0.2442,0.7558	-11634.85
0.2449,0.7551	-11635.00
0.2363,0.7637	-11634.38
0.2422,0.7578	-11634.52
0.2433,0.7567	-11634.68
0.2495,0.7505	-11636.36
0.2367,0.7633	-11634.35
0.2322,0.7678	-11635.01
0.2448,0.7552	-11634.97
0.2354,0.7646	-11634.47
0.2376,0.7624	-11634.31
0.2390,0.7610	-11634.30
0.2355,0.7645	-11634.46
0.2342,0.7658	-11634.62
0.2392,0.7608	-11634.30
0.2407,0.7593	-11634.37
0.2324,0.7676	-11634.96
0.2384,0.7616	-11634.29
0.2357,0.7643	-11634.44
0.2354,0.7646	-11634.46
0.2357,0.7643	-11634.43
0.2362,0.7638	-11634.39
0.2365,0.7635	-11634.37
0.2350,0.7650	-11634.52
0.2350,0.7650	-11634.52
0.2436,0.7564	-11634.74
0.2383,0.7617	-11634.29
0.2334,0.7666	-11634.75
0.2305,0.7695	-11635.43
0.2325,0.7675	-11634.94
0.2320,0.7680	-11635.05
0.2444,0.7556	-11634.88
0.2357,0.7643	-11634.43
0.2436,0.7564	-11634.73
0.2534,0.7466	-11638.07
0.2432,0.7568	-11634.67
0.2448,0.7552	-11634.98
0.2394,0.7606	-11634.31
0.2362,0.7638	-11634.38
0.2369,0.7631	-11634.34
0.2385,0.7615	-11634.29
0.2409,0.7591	-11634.39
0.2410,0.7590	-11634.40
0.2438,0.7562	-11634.78
0.2348,0.7652	-11634.54
0.2362,0.7638	-11634.39
0.2385,0.7615	-11634.29
0.2359,0.7641	-11634.41
0.2451,0.7549	-11635.03
0.2392,0.7608	-11634.30
0.2300,0.7700	-11635.60
0.2424,0.7576	-11634.55
0.2317,0.7683	-11635.12
0.2387,0.7613	-11634.29
0.2378,0.7622	-11634.30
0.2380,0.7620	-11634.30
0.2426,0.7574	-11634.58
0.2320,0.7680	-11635.06
0.2386,0.7614	-11634.29
0.2507,0.7493	-11636.82
0.2403,0.7597	-11634.35
0.2385,0.7615	-11634.29
0.2416,0.7584	-11634.46
0.2484,0.7516	-11635.96
0.2346,0.7654	-11634.57
0.2346,0.7654	-11634.57
0.2371,0.7629	-11634.33
0.2355,0.7645	-11634.46
0.2387,0.7613	-11634.29
0.2375,0.7625	-11634.31
0.2418,0.7582	-11634.48
0.2350,0.7650	-11634.52
0.2458,0.7542	-11635.20
0.2334,0.7666	-11634.75
0.2371,0.7629	-11634.33
0.2274,0.7726	-11636.52
0.2335,0.7665	-11634.74
0.2412,0.7588	-11634.41
0.2413,0.7587	-11634.42
0.2375,0.7625	-11634.31
0.2307,0.7693	-11635.37
0.2331,0.7669	-11634.82
0.2435,0.7565	-11634.72
0.2386,0.7614	-11634.29
0.2265,0.7735	-11636.88
0.2382,0.7618	-11634.29
0.2371,0.7629	-11634.33
0.2507,0.7493	-11636.83
0.2430,0.7570	-11634.64
0.2368,0.7632	-11634.34
0.2356,0.7644	-11634.44
0.2348,0.7652	-11634.54
0.2399,0.7601	-11634.32
0.2382,0.7618	-11634.29
0.2397,0.7603	-11634.31
0.2374,0.7626	-11634.32
0.2437,0.7563	-11634.75
0.2371,0.7629	-11634.33
0.2356,0.7644	-11634.44
0.2353,0.7647	-11634.48
0.2363,0.7637	-11634.38
0.2378,0.7622	-11634.30
0.2413,0.7587	-11634.42
0.2283,0.7717	-11636.18
0.2426,0.7574	-11634.58
0.2374,0.7626	-11634.31
0.2283,0.7717	-11636.17
0.2465,0.7535	-11635.39
0.2452,0.7548	-11635.05
0.2332,0.7668	-11634.80
0.2398,0.7602	-11634.32
0.2443,0.7557	-11634.87
0.2406,0.7594	-11634.37
0.2396,0.7604	-11634.31
0.2420,0.7580	-11634.50
0.2463,0.7537	-11635.32
0.2343,0.7657	-11634.61
0.2447,0.7553	-11634.95
0.2353,0.7647	-11634.47
0.2440,0.7560	-11634.81
0.2385,0.7615	-11634.29
0.2310,0.7690	-11635.31
0.2409,0.7591	-11634.39
0.2442,0.7558	-11634.85
0.2460,0.7540	-11635.25
0.2424,0.7576	-11634.55
0.2465,0.7535	-11635.38
0.2392,0.7608	-11634.30
0.2398,0.7602	-11634.32
0.2375,0.7625	-11634.31
0.2441,0.7559	-11634.83
0.2359,0.7641	-11634.41
0.2454,0.7546	-11635.10
0.2360,0.7640	-11634.41
0.2335,0.7665	-11634.74
0.2365,0.7635	-11634.37
0.2411,0.7589	-11634.41
0.2350,0.7650	-11634.51
0.2386,0.7614	-11634.29
0.2364,0.7636	-11634.38
0.2414,0.7586	-11634.43
0.2375,0.7625	-11634.31
0.2343,0.7657	-11634.61
0.2356,0.7644	-11634.44
0.2468,0.7532	-11635.47
0.2426,0.7574	-11634.58
0.2341,0.7659	-11634.64
0.2344,0.7656	-11634.60
0.2398,0.7602	-11634.32
0.2310,0.7690	-11635.31
0.2522,0.7478	-11637.46
0.2343,0.7657	-11634.61
0.2456,0.7544	-11635.16
0.2399,0.7601	-11634.32
0.2432,0.7568	-11634.66
0.2443,0.7557	-11634.86
0.2362,0.7638	-11634.39
0.2376,0.7624	-11634.31
0.2545,0.7455	-11638.63
0.2353,0.7647	-11634.47
0.2326,0.7674	-11634.92
0.2305,0.7695	-11635.45
0.2399,0.7601	-11634.33
0.2410,0.7590	-11634.40
0.2334,0.7666	-11634.75
0.2427,0.7573	-11634.59
0.2425,0.7575	-11634.56
0.2454,0.7546	-11635.11
0.2400,0.7600	-11634.33
0.2458,0.7542	-11635.20
0.2420,0.7580	-11634.51
0.2419,0.7581	-11634.49
0.2348,0.7652	-11634.54
0.2388,0.7612	-11634.29
0.2368,0.7632	-11634.35
0.2457,0.7543	-11635.18
0.2289,0.7711	-11635.95
0.2267,0.7733	-11636.79
0.2362,0.7638	-11634.39
0.2385,0.7615	-11634.29
0.2355,0.7645	-11634.46
0.2344,0.7656	-11634.59
0.2377,0.7623	-11634.30
0.2321,0.7679	-11635.02
0.2516,0.7484	-11637.21
0.2379,0.7621	-11634.30
0.2480,0.7520	-11635.84
0.2368,0.7632	-11634.35
0.2330,0.7670	-11634.83
0.2289,0.7711	-11635.94
0.2387,0.7613	-11634.29
0.2416,0.7584	-11634.46
0.2455,0.7545	-11635.12
0.2459,0.7541	-11635.22
0.2366,0.7634	-11634.36
0.2383,0.7617	-11634.29
0.2377,0.7623	-11634.31
0.2217,0.7783	-11639.48
0.2460,0.7540	-11635.25
0.2420,0.7580	-11634.50
0.2422,0.7578	-11634.52
0.2447,0.7553	-11634.96
0.2302,0.7698	-11635.52
0.2438,0.7562	-11634.77
0.2383,0.7617	-11634.29
0.2394,0.7606	-11634.31
0.2387,0.7613	-11634.29
0.2416,0.7584	-11634.46
0.2404,0.7596	-11634.36
0.2321,0.7679	-11635.03
0.2423,0.7577	-11634.54
0.2334,0.7666	-11634.77
0.2357,0.7643	-11634.44
0.2367,0.7633	-11634.35
0.2365,0.7635	-11634.36
0.2401,0.7599	-11634.33
0.2481,0.7519	-11635.86
0.2421,0.7579	-11634.51
0.2424,0.7576	-11634.56
0.2360,0.7640	-11634.41
0.2347,0.7653	-11634.56
0.2496,0.7504	-11636.38
0.2356,0.7644	-11634.45
0.2343,0.7657	-11634.61
0.2453,0.7547	-11635.08
0.2322,0.7678	-11635.02
0.2389,0.7611	-11634.29
0.2494,0.7506	-11636.31
0.2389,0.7611	-11634.29
0.2391,0.7609	-11634.30
0.2445,0.7555	-11634.91
0.2423,0.7577	-11634.54
0.2415,0.7585	-11634.44
0.2381,0.7619	-11634.29
0.2358,0.7642	-11634.42
0.2328,0.7672	-11634.88
0.2481,0.7519	-11635.85
0.2479,0.7521	-11635.80
0.2510,0.7490	-11636.93
0.2434,0.7566	-11634.69
0.2419,0.7581	-11634.49
0.2445,0.7555	-11634.91
0.2440,0.7560	-11634.80
0.2383,0.7617	-11634.29
0.2290,0.7710	-11635.93
0.2331,0.7669	-11634.81
0.2410,0.7590	-11634.40
0.2462,0.7538	-11635.30
0.2352,0.7648	-11634.49
0.2586,0.7414	-11641.09
0.2361,0.7639	-11634.40
0.2344,0.7656	-11634.60
0.2338,0.7662	-11634.68
0.2378,0.7622	-11634.30
0.2421,0.7579	-11634.51
0.2447,0.7553	-11634.94
0.2409,0.7591	-11634.39
0.2416,0.7584	-11634.45
0.2508,0.7492	-11636.87
0.2331,0.7669	-11634.82
0.2381,0.7619	-11634.30
0.2369,0.7631	-11634.34
0.2397,0.7603	-11634.32
0.2368,0.7632	-11634.34
0.2412,0.7588	-11634.42
0.2349,0.7651	-11634.53
0.2371,0.7629	-11634.33
0.2476,0.7524	-11635.72
0.2476,0.7524	-11635.71
0.2273,0.7727	-11636.55
0.2366,0.7634	-11634.36
0.2435,0.7565	-11634.72
0.2480,0.7520	-11635.82
0.2409,0.7591	-11634.39
0.2409,0.7591	-11634.39
0.2411,0.7589	-11634.41
0.2404,0.7596	-11634.35
0.2349,0.7651	-11634.53
0.2411,0.7589	-11634.41
0.2404,0.7596	-11634.35
0.2381,0.7619	-11634.30
0.2388,0.7612	-11634.29
0.2431,0.7569	-11634.65
0.2468,0.7532	-11635.48
0.2382,0.7618	-11634.29
0.2413,0.7587	-11634.42
0.2336,0.7664	-11634.72
0.2408,0.7592	-11634.38
0.2421,0.7579	-11634.52
0.2422,0.7578	-11634.52
0.2397,0.7603	-11634.31
0.2492,0.7508	-11636.22
0.2313,0.7687	-11635.23
0.2494,0.7506	-11636.31
0.2478,0.7522	-11635.77
0.2398,0.7602	-11634.32
0.2405,0.7595	-11634.36
0.2395,0.7605	-11634.31
0.2413,0.7587	-11634.43
0.2315,0.7685	-11635.17
0.2310,0.7690	-11635.30
0.2470,0.7530	-11635.52
0.2346,0.7654	-11634.56
0.2534,0.7466	-11638.04
0.2407,0.7593	-11634.38
0.2365,0.7635	-11634.37
0.2480,0.7520	-11635.83
0.2352,0.7648	-11634.49
0.2401,0.7599	-11634.33
0.2402,0.7598	-11634.34
0.2339,0.7661	-11634.67
0.2532,0.7468	-11637.95
0.2386,0.7614	-11634.29
0.2322,0.7678	-11635.01
0.2369,0.7631	-11634.34
0.2401,0.7599	-11634.34
0.2354,0.7646	-11634.46
0.2269,0.7731	-11636.74
0.2382,0.7618	-11634.29
0.2362,0.7638	-11634.39
0.2370,0.7630	-11634.33
0.2347,0.7653	-11634.55
0.2411,0.7589	-11634.41
0.2428,0.7572	-11634.61
0.2351,0.7649	-11634.50
0.2378,0.7622	-11634.30
0.2457,0.7543	-11635.17
0.2479,0.7521	-11635.80
0.2261,0.7739	-11637.07
0.2388,0.7612	-11634.29
0.2375,0.7625	-11634.31
0.2354,0.7646	-11634.46
0.2454,0.7546	-11635.10
0.2365,0.7635	-11634.36
0.2472,0.7528	-11635.58
0.2353,0.7647	-11634.47
0.2343,0.7657	-11634.61
0.2347,0.7653	-11634.56
0.2372,0.7628	-11634.32
0.2435,0.7565	-11634.71
0.2355,0.7645	-11634.45
0.2345,0.7655	-11634.57
0.2401,0.7599	-11634.33
0.2323,0.7677	-11634.97
0.2480,0.7520	-11635.83
0.2384,0.7616	-11634.29
0.2285,0.7715	-11636.11
0.2398,0.7602	-11634.32
0.2404,0.7596	-11634.35
0.2353,0.7647	-11634.48
0.2440,0.7560	-11634.82
0.2306,0.7694	-11635.40
0.2441,0.7559	-11634.83
0.2322,0.7678	-11635.01
0.2295,0.7705	-11635.75
0.2443,0.7557	-11634.87
0.2396,0.7604	-11634.31
0.2343,0.7657	-11634.61
0.2402,0.7598	-11634.34
0.2462,0.7538	-11635.31
0.2339,0.7661	-11634.67
0.2354,0.7646	-11634.47
0.2363,0.7637	-11634.38
0.2510,0.7490	-11636.94
0.2373,0.7627	-11634.32
0.2308,0.7692	-11635.37
0.2482,0.7518	-11635.91
0.2377,0.7623	-11634.30
0.2415,0.7585	-11634.44
0.2465,0.7535	-11635.40
0.2423,0.7577	-11634.54
0.2335,0.7665	-11634.74
0.2363,0.7637	-11634.38
0.2376,0.7624	-11634.31
0.2356,0.7644	-11634.44
0.2417,0.7583	-11634.46
0.2378,0.7622	-11634.30
0.2494,0.7506	-11636.30
0.2406,0.7594	-11634.36
0.2488,0.7512	-11636.12
0.2434,0.7566	-11634.70
0.2368,0.7632	-11634.35
0.2412,0.7588	-11634.41
0.2347,0.7653	-11634.56
0.2422,0.7578	-11634.52
0.2436,0.7564	-11634.74
0.2286,0.7714	-11636.08
0.2314,0.7686	-11635.21
0.2435,0.7565	-11634.72
0.2343,0.7657	-11634.61
0.2375,0.7625	-11634.31
0.2266,0.7734	-11636.84
0.2420,0.7580	-11634.50
0.2244,0.7756	-11637.89
0.2303,0.7697	-11635.49
0.2369,0.7631	-11634.34
0.2428,0.7572	-11634.60
0.2332,0.7668	-11634.81
0.2387,0.7613	-11634.29
0.2341,0.7659	-11634.65
0.2323,0.7677	-11634.99
0.2298,0.7702	-11635.64
0.2389,0.7611	-11634.30
0.2304,0.7696	-11635.48
0.2360,0.7640	-11634.41
0.2443,0.7557	-11634.87
0.2427,0.7573	-11634.60
0.2286,0.7714	-11636.07
0.2413,0.7587	-11634.42
0.2430,0.7570	-11634.64
0.2371,0.7629	-11634.33
0.2450,0.7550	-11635.01
0.2473,0.7527	-11635.61
0.2256,0.7744	-11637.30
0.2367,0.7633	-11634.35
0.2328,0.7672	-11634.88
0.2360,0.7640	-11634.40
0.2373,0.7627	-11634.32
0.2435,0.7565	-11634.73
0.2408,0.7592	-11634.38
0.2464,0.7536	-11635.36
0.2446,0.7554	-11634.93
0.2434,0.7566	-11634.71
0.2279,0.7721	-11636.32
0.2359,0.7641	-11634.42
0.2421,0.7579	-11634.51
0.2472,0.7528	-11635.58
0.2363,0.7637	-11634.38
0.2298,0.7702	-11635.66
0.2438,0.7562	-11634.78
0.2342,0.7658	-11634.63
0.2393,0.7607	-11634.30
0.2458,0.7542	-11635.21
0.2360,0.7640	-11634.40
0.2492,0.7508	-11636.25
0.2553,0.7447	-11639.08
0.2397,0.7603	-11634.32
0.2375,0.7625	-11634.31
0.2413,0.7587	-11634.42
0.2401,0.7599	-11634.34
0.2313,0.7687	-11635.23
0.2420,0.7580	-11634.50
0.2370,0.7630	-11634.33
0.2443,0.7557	-11634.86
0.2417,0.7583	-11634.47
0.2425,0.7575	-11634.57
0.2370,0.7630	-11634.34
0.2289,0.7711	-11635.95
0.2381,0.7619	-11634.30
0.2372,0.7628	-11634.33
0.2446,0.7554	-11634.92
0.2302,0.7698	-11635.52
0.2371,0.7629	-11634.33
0.2338,0.7662	-11634.69
0.2439,0.7561	-11634.78
0.2361,0.7639	-11634.40
0.2389,0.7611	-11634.29
0.2465,0.7535	-11635.39
0.2363,0.7637	-11634.38
0.2421,0.7579	-11634.51
0.2374,0.7626	-11634.32
0.2476,0.7524	-11635.72
0.2399,0.7601	-11634.32
0.2337,0.7663	-11634.71
0.2393,0.7607	-11634.30
0.2399,0.7601	-11634.32
0.2359,0.7641	-11634.41
0.2439,0.7561	-11634.79
0.2506,0.7494	-11636.79
0.2368,0.7632	-11634.35
0.2332,0.7668	-11634.80
0.2398,0.7602	-11634.32
0.2366,0.7634	-11634.36
0.2428,0.7572	-11634.61
0.2352,0.7648	-11634.49
0.2434,0.7566	-11634.70
0.2431,0.7569	-11634.66
0.2292,0.7708	-11635.86
0.2377,0.7623	-11634.30
0.2390,0.7610	-11634.30
0.2314,0.7686	-11635.20
0.2275,0.7725	-11636.50
0.2467,0.7533	-11635.43
0.2474,0.7526	-11635.64
0.2374,0.7626	-11634.32
0.2418,0.7582	-11634.48
0.2333,0.7667	-11634.77
0.2433,0.7567	-11634.68
0.2427,0.7573	-11634.59
0.2310,0.7690	-11635.31
0.2347,0.7653	-11634.56
0.2399,0.7601	-11634.32
0.2400,0.7600	-11634.33
0.2378,0.7622	-11634.30
0.2370,0.7630	-11634.34
0.2277,0.7723	-11636.39
0.2454,0.7546	-11635.12
0.2309,0.7691	-11635.34
0.2298,0.7702	-11635.67
0.2471,0.7529	-11635.54
0.2397,0.7603	-11634.32
0.2406,0.7594	-11634.37
0.2361,0.7639	-11634.40
0.2363,0.7637	-11634.38
0.2406,0.7594	-11634.36
0.2482,0.7518	-11635.90
0.2349,0.7651	-11634.53
0.2392,0.7608	-11634.30
0.2312,0.7688	-11635.24
0.2410,0.7590	-11634.40
0.2349,0.7651	-11634.52
0.2376,0.7624	-11634.31
0.2384,0.7616	-11634.29
0.2527,0.7473	-11637.72
0.2389,0.7611	-11634.29
0.2347,0.7653	-11634.55
0.2350,0.7650	-11634.51
0.2295,0.7705	-11635.75
0.2422,0.7578	-11634.53
0.2363,0.7637	-11634.38
0.2359,0.7641	-11634.42
0.2517,0.7483	-11637.24
0.2383,0.7617	-11634.29
0.2376,0.7624	-11634.31
0.2371,0.7629	-11634.33
0.2441,0.7559	-11634.82
0.2319,0.7681	-11635.08
0.2422,0.7578	-11634.52
0.2370,0.7630	-11634.33
0.2428,0.7572	-11634.60
0.2378,0.7622	-11634.30
0.2410,0.7590	-11634.40
0.2316,0.7684	-11635.16
0.2332,0.7668	-11634.79
0.2340,0.7660	-11634.66
0.2385,0.7615	-11634.29
0.2432,0.7568	-11634.67
0.2437,0.7563	-11634.75
0.2492,0.7508	-11636.23
0.2370,0.7630	-11634.33
0.2396,0.7604	-11634.31
0.2363,0.7637	-11634.38
0.2386,0.7614	-11634.29
0.2446,0.7554	-11634.92
0.2413,0.7587	-11634.43
0.2359,0.7641	-11634.42
0.2447,0.7553	-11634.94
0.2384,0.7616	-11634.29
0.2367,0.7633	-11634.35
0.2315,0.7685	-11635.17
0.2412,0.7588	-11634.42
0.2379,0.7621	-11634.30
0.2343,0.7657	-11634.61
0.2417,0.7583	-11634.47
0.2353,0.7647	-11634.47
0.2453,0.7547	-11635.07
0.2384,0.7616	-11634.29
0.2448,0.7552	-11634.97
0.2397,0.7603	-11634.31
0.2355,0.7645	-11634.46
0.2376,0.7624	-11634.31
0.2435,0.7565	-11634.72
0.2449,0.7551	-11635.00
0.2388,0.7612	-11634.29
0.2363,0.7637	-11634.38
0.2401,0.7599	-11634.33
0.2426,0.7574	-11634.57
0.2371,0.7629	-11634.33
0.2380,0.7620	-11634.30
0.2429,0.7571	-11634.62
0.2202,0.7798	-11640.39
0.2456,0.7544	-11635.16
0.2305,0.7695	-11635.43
0.2493,0.7507	-11636.28
0.2351,0.7649	-11634.50
0.2341,0.7659	-11634.64
0.2259,0.7741	-11637.16
0.2429,0.7571	-11634.63
0.2397,0.7603	-11634.31
0.2389,0.7611	-11634.29
0.2331,0.7669	-11634.81
0.2468,0.7532	-11635.47
0.2366,0.7634	-11634.36
0.2361,0.7639	-11634.39
0.2411,0.7589	-11634.41
0.2375,0.7625	-11634.31
0.2518,0.7482	-11637.30
0.2292,0.7708	-11635.86
0.2296,0.7704	-11635.72
0.2377,0.7623	-11634.30
0.2311,0.7689	-11635.29
0.2319,0.7681	-11635.07
0.2377,0.7623	-11634.30
0.2450,0.7550	-11635.01
0.2303,0.7697	-11635.49
0.2353,0.7647	-11634.48
0.2352,0.7648	-11634.48
0.2346,0.7654	-11634.56
0.2396,0.7604	-11634.31
0.2401,0.7599	-11634.33
0.2357,0.7643	-11634.44
0.2442,0.7558	-11634.84
0.2435,0.7565	-11634.72
0.2354,0.7646	-11634.47
0.2296,0.7704	-11635.73
0.2408,0.7592	-11634.38
0.2427,0.7573	-11634.59
0.2441,0.7559	-11634.82
0.2388,0.7612	-11634.29
0.2416,0.7584	-11634.45
0.2364,0.7636	-11634.37
0.2335,0.7665	-11634.75
0.2362,0.7638	-11634.38
0.2371,0.7629	-11634.33
0.2373,0.7627	-11634.32
0.2381,0.7619	-11634.30
0.2352,0.7648	-11634.49
0.2338,0.7662	-11634.69
0.2366,0.7634	-11634.36
0.2386,0.7614	-11634.29
0.2411,0.7589	-11634.40
0.2418,0.7582	-11634.48
0.2342,0.7658	-11634.62
0.2300,0.7700	-11635.58
0.2457,0.7543	-11635.17
0.2383,0.7617	-11634.29
0.2357,0.7643	-11634.43
0.2357,0.7643	-11634.43
0.2470,0.7530	-11635.53
0.2376,0.7624	-11634.31
0.2242,0.7758	-11638.00
0.2412,0.7588	-11634.41
0.2390,0.7610	-11634.30
0.2449,0.7551	-11634.99
0.2331,0.7669	-11634.81
0.2325,0.7675	-11634.95
0.2387,0.7613	-11634.29
0.2400,0.7600	-11634.33
0.2502,0.7498	-11636.61
0.2410,0.7590	-11634.40
0.2464,0.7536	-11635.36
0.2396,0.7604	-11634.31
0.2413,0.7587	-11634.42
0.2355,0.7645	-11634.46
0.2365,0.7635	-11634.36
0.2393,0.7607	-11634.30
0.2393,0.7607	-11634.30
0.2340,0.7660	-11634.65
0.2516,0.7484	-11637.21
0.2386,0.7614	-11634.29
0.2351,0.7649	-11634.50
0.2589,0.7411	-11641.24
0.2366,0.7634	-11634.36
0.2412,0.7588	-11634.41
0.2357,0.7643	-11634.44
0.2285,0.7715	-11636.08
0.2342,0.7658	-11634.62
0.2409,0.7591	-11634.39
0.2387,0.7613	-11634.29
0.2473,0.7527	-11635.63
0.2332,0.7668	-11634.79
0.2327,0.7673	-11634.90
0.2433,0.7567	-11634.68
0.2403,0.7597	-11634.35
0.2457,0.7543	-11635.18
0.2408,0.7592	-11634.38
0.2384,0.7616	-11634.29
0.2401,0.7599	-11634.34
0.2392,0.7608	-11634.30
0.2273,0.7727	-11636.58
0.2439,0.7561	-11634.78
0.2417,0.7583	-11634.47
0.2406,0.7594	-11634.37
0.2337,0.7663	-11634.70
0.2333,0.7667	-11634.79
0.2332,0.7668	-11634.81
0.2383,0.7617	-11634.29
0.2458,0.7542	-11635.20
0.2517,0.7483	-11637.26
0.2405,0.7595	-11634.36
0.2413,0.7587	-11634.43
0.2375,0.7625	-11634.31
0.2386,0.7614	-11634.29
0.2423,0.7577	-11634.54
0.2506,0.7494	-11636.78
0.2336,0.7664	-11634.72
0.2446,0.7554	-11634.92
0.2396,0.7604	-11634.31
0.2426,0.7574	-11634.57
0.2300,0.7700	-11635.58
0.2393,0.7607	-11634.30
0.2369,0.7631	-11634.34
0.2363,0.7637	-11634.38
0.2381,0.7619	-11634.30
0.2455,0.7545	-11635.12
0.2332,0.7668	-11634.80
0.2406,0.7594	-11634.37
0.2415,0.7585	-11634.44
0.2382,0.7618	-11634.29
0.2424,0.7576	-11634.55
0.2397,0.7603	-11634.32
0.2436,0.7564	-11634.73
0.2396,0.7604	-11634.31
0.2378,0.7622	-11634.30
0.2410,0.7590	-11634.40
0.2438,0.7562	-11634.78
0.2405,0.7595	-11634.36
0.2360,0.7640	-11634.41
0.2400,0.7600	-11634.33
0.2408,0.7592	-11634.38
0.2405,0.7595	-11634.36
0.2334,0.7666	-11634.76
0.2373,0.7627	-11634.32
0.2452,0.7548	-11635.07
0.2404,0.7596	-11634.35
0.2305,0.7695	-11635.44
0.2306,0.7694	-11635.41
0.2352,0.7648	-11634.49
0.2354,0.7646	-11634.46
0.2374,0.7626	-11634.31
0.2486,0.7514	-11636.04
0.2461,0.7539	-11635.27
0.2401,0.7599	-11634.33
0.2362,0.7638	-11634.39
0.2365,0.7635	-11634.36
0.2389,0.7611	-11634.29
0.2408,0.7592	-11634.38
0.2457,0.7543	-11635.18
0.2318,0.7682	-11635.10
0.2410,0.7590	-11634.40
0.2301,0.7699	-11635.56
0.2406,0.7594	-11634.36
0.2352,0.7648	-11634.49
0.2366,0.7634	-11634.35
0.2431,0.7569	-11634.65
0.2395,0.7605	-11634.31
0.2287,0.7713	-11636.02
0.2385,0.7615	-11634.29
0.2273,0.7727	-11636.55
0.2335,0.7665	-11634.74
0.2398,0.7602	-11634.32
0.2393,0.7607	-11634.30
0.2338,0.7662	-11634.69
0.2321,0.7679	-11635.03
0.2351,0.7649	-11634.50
0.2422,0.7578	-11634.52
0.2422,0.7578	-11634.52
0.2327,0.7673	-11634.90
0.2450,0.7550	-11635.02
0.2325,0.7675	-11634.93
0.2357,0.7643	-11634.43
0.2422,0.7578	-11634.53
0.2343,0.7657	-11634.61
0.2389,0.7611	-11634.29
0.2379,0.7621	-11634.30
0.2355,0.7645	-11634.46
0.2307,0.7693	-11635.38
0.2378,0.7622	-11634.30
0.2369,0.7631	-11634.34
0.2278,0.7722	-11636.36
0.2444,0.7556	-11634.88
0.2449,0.7551	-11635.00
0.2409,0.7591	-11634.39
0.2377,0.7623	-11634.31
0.2351,0.7649	-11634.50
0.2347,0.7653	-11634.55
0.2334,0.7666	-11634.77
0.2378,0.7622	-11634.30
0.2478,0.7522	-11635.78
0.2376,0.7624	-11634.31
0.2458,0.7542	-11635.21
0.2317,0.7683	-11635.12
0.2393,0.7607	-11634.30
0.2375,0.7625	-11634.31
0.2499,0.7501	-11636.52
0.2388,0.7612	-11634.29
0.2416,0.7584	-11634.45
0.2419,0.7581	-11634.49
0.2473,0.7527	-11635.63
0.2452,0.7548	-11635.07
0.2426,0.7574	-11634.58
0.2342,0.7658	-11634.62
0.2388,0.7612	-11634.29
0.2332,0.7668	-11634.79
0.2379,0.7621	-11634.30
0.2454,0.7546	-11635.11
0.2352,0.7648	-11634.49
0.2420,0.7580	-11634.50
0.2418,0.7582	-11634.48
0.2405,0.7595	-11634.36
0.2463,0.7537	-11635.34
0.2453,0.7547	-11635.08
0.2306,0.7694	-11635.42
0.2370,0.7630	-11634.33
0.2367,0.7633	-11634.35
0.2335,0.7665	-11634.74
0.2405,0.7595	-11634.36
0.2370,0.7630	-11634.34
0.2379,0.7621	-11634.30
0.2332,0.7668	-11634.80
0.2422,0.7578	-11634.53
0.2376,0.7624	-11634.31
0.2334,0.7666	-11634.77
0.2385,0.7615	-11634.29
0.2370,0.7630	-11634.33
0.2391,0.7609	-11634.30
0.2479,0.7521	-11635.81
0.2403,0.7597	-11634.34
0.2405,0.7595	-11634.36
0.2360,0.7640	-11634.41
0.2397,0.7603	-11634.32
0.2421,0.7579	-11634.51
0.2332,0.7668	-11634.80
0.2410,0.7590	-11634.40
0.2412,0.7588	-11634.41
0.2359,0.7641	-11634.41
0.2367,0.7633	-11634.35
0.2298,0.7702	-11635.66
0.2354,0.7646	-11634.47
0.2366,0.7634	-11634.36
0.2476,0.7524	-11635.71
0.2392,0.7608	-11634.30
0.2395,0.7605	-11634.31
0.2406,0.7594	-11634.37
0.2390,0.7610	-11634.30
0.2410,0.7590	-11634.40
0.2437,0.7563	-11634.76
0.2399,0.7601	-11634.32
0.2368,0.7632	-11634.34
0.2308,0.7692	-11635.36
0.2398,0.7602	-11634.32
0.2398,0.7602	-11634.32
0.2413,0.7587	-11634.42
0.2348,0.7652	-11634.54
0.2371,0.7629	-11634.33
0.2299,0.7701	-11635.62
0.2398,0.7602	-11634.32
0.2402,0.7598	-11634.34
0.2370,0.7630	-11634.33
0.2351,0.7649	-11634.50
0.2430,0.7570	-11634.63
0.2396,0.7604	-11634.31
0.2453,0.7547	-11635.08
0.2348,0.7652	-11634.54
0.2393,0.7607	-11634.30
0.2340,0.7660	-11634.66
0.2417,0.7583	-11634.46
0.2359,0.7641	-11634.41
0.2403,0.7597	-11634.35
0.2314,0.7686	-11635.19
0.2467,0.7533	-11635.43
0.2488,0.7512	-11636.09
0.2357,0.7643	-11634.43
0.2421,0.7579	-11634.52
0.2352,0.7648	-11634.49
0.2429,0.7571	-11634.62
0.2478,0.7522	-11635.76
0.2365,0.7635	-11634.36
0.2395,0.7605	-11634.31
0.2372,0.7628	-11634.32
0.2494,0.7506	-11636.31
0.2333,0.7667	-11634.78
0.2361,0.7639	-11634.39
0.2430,0.7570	-11634.64
0.2320,0.7680	-11635.04
0.2439,0.7561	-11634.79
0.2361,0.7639	-11634.39
0.2351,0.7649	-11634.50
0.2450,0.7550	-11635.00
0.2372,0.7628	-11634.32
0.2390,0.7610	-11634.30
0.2323,0.7677	-11634.99
0.2352,0.7648	-11634.48
0.2316,0.7684	-11635.14
0.2406,0.7594	-11634.37
0.2443,0.7557	-11634.87
0.2374,0.7626	-11634.31
0.2442,0.7558	-11634.86
0.2361,0.7639	-11634.39
0.2331,0.7669	-11634.82
0.2350,0.7650	-11634.51
0.2445,0.7555	-11634.90
0.2449,0.7551	-11635.00
0.2405,0.7595	-11634.36
0.2247,0.7753	-11637.73
0.2382,0.7618	-11634.29
0.2400,0.7600	-11634.33
0.2418,0.7582	-11634.48
0.2409,0.7591	-11634.39
0.2307,0.7693	-11635.38
0.2252,0.7748	-11637.51
0.2387,0.7613	-11634.29
0.2411,0.7589	-11634.41
0.2384,0.7616	-11634.29
0.2423,0.7577	-11634.54
0.2503,0.7497	-11636.64
0.2372,0.7628	-11634.32
0.2495,0.7505	-11636.34
0.2452,0.7548	-11635.05
0.2341,0.7659	-11634.63
0.2424,0.7576	-11634.55
0.2329,0.7671	-11634.85
0.2357,0.7643	-11634.43
0.2410,0.7590	-11634.40
0.2367,0.7633	-11634.35
0.2385,0.7615	-11634.29
0.2429,0.7571	-11634.62
0.2425,0.7575	-11634.56
0.2384,0.7616	-11634.29
0.2456,0.7544	-11635.16
0.2532,0.7468	-11637.95
0.2333,0.7667	-11634.79
0.2291,0.7709	-11635.88
0.2492,0.7508	-11636.26
0.2441,0.7559	-11634.82
0.2428,0.7572	-11634.61
0.2415,0.7585	-11634.44
0.2410,0.7590	-11634.40
0.2495,0.7505	-11636.35
0.2362,0.7638	-11634.39
0.2401,0.7599	-11634.33
0.2332,0.7668	-11634.80
0.2458,0.7542	-11635.20
0.2480,0.7520	-11635.83
0.2426,0.7574	-11634.58
0.2369,0.7631	-11634.34
0.2385,0.7615	-11634.29
0.2437,0.7563	-11634.76
0.2375,0.7625	-11634.31
0.2331,0.7669	-11634.82
0.2364,0.7636	-11634.37
0.2411,0.7589	-11634.41
0.2292,0.7708	-11635.84
0.2416,0.7584	-11634.45
0.2371,0.7629	-11634.33
0.2371,0.7629	-11634.33
0.2363,0.7637	-11634.38
0.2302,0.7698	-11635.52
0.2395,0.7605	-11634.31
0.2470,0.7530	-11635.54
0.2445,0.7555	-11634.91
0.2456,0.7544	-11635.15
0.2350,0.7650	-11634.51
0.2460,0.7540	-11635.26
0.2417,0.7583	-11634.46
0.2367,0.7633	-11634.35
0.2437,0.7563	-11634.76
0.2388,0.7612	-11634.29
0.2369,0.7631	-11634.34
0.2349,0.7651	-11634.53
0.2390,0.7610	-11634.30
0.2344,0.7656	-11634.59
0.2447,0.7553	-11634.95
0.2331,0.7669	-11634.82
0.2545,0.7455	-11638.60
0.2456,0.7544	-11635.16
0.2456,0.7544	-11635.16
0.2460,0.7540	-11635.26
0.2367,0.7633	-11634.35
0.2287,0.7713	-11636.03
0.2320,0.7680	-11635.04
0.2412,0.7588	-11634.41
0.2271,0.7729	-11636.64
0.2474,0.7526	-11635.65
0.2285,0.7715	-11636.09
0.2412,0.7588	-11634.42
0.2372,0.7628	-11634.32
0.2342,0.7658	-11634.63
0.2428,0.7572	-11634.60
0.2394,0.7606	-11634.30
0.2381,0.7619	-11634.29
0.2375,0.7625	-11634.31
0.2411,0.7589	-11634.40
0.2393,0.7607	-11634.30
0.2320,0.7680	-11635.05
0.2455,0.7545	-11635.14
0.2360,0.7640	-11634.40
0.2453,0.7547	-11635.08
0.2299,0.7701	-11635.63
0.2333,0.7667	-11634.78
0.2366,0.7634	-11634.36
0.2375,0.7625	-11634.31
0.2368,0.7632	-11634.35
0.2267,0.7733	-11636.79
0.2379,0.7621	-11634.30
0.2321,0.7679	-11635.03
0.2342,0.7658	-11634.62
0.2360,0.7640	-11634.41
0.2394,0.7606	-11634.30
0.2391,0.7609	-11634.30
0.2354,0.7646	-11634.46
0.2359,0.7641	-11634.41
0.2256,0.7744	-11637.30
0.2414,0.7586	-11634.43
0.2395,0.7605	-11634.31
0.2415,0.7585	-11634.45
0.2423,0.7577	-11634.53
0.2345,0.7655	-11634.58
0.2404,0.7596	-11634.35
0.2346,0.7654	-11634.57
0.2373,0.7627	-11634.32
0.2417,0.7583	-11634.47
0.2370,0.7630	-11634.34
0.2470,0.7530	-11635.53
0.2388,0.7612	-11634.29
0.2480,0.7520	-11635.83
0.2400,0.7600	-11634.33
0.2426,0.7574	-11634.57
0.2459,0.7541	-11635.22
0.2356,0.7644	-11634.45
0.2429,0.7571	-11634.62
0.2420,0.7580	-11634.51
0.2394,0.7606	-11634.31
0.2459,0.7541	-11635.24
0.2386,0.7614	-11634.29
0.2351,0.7649	-11634.50
0.2326,0.7674	-11634.92
0.2362,0.7638	-11634.39
0.2325,0.7675	-11634.93
0.2415,0.7585	-11634.45
0.2494,0.7506	-11636.30
0.2390,0.7610	-11634.30
0.2369,0.7631	-11634.34
0.2423,0.7577	-11634.54
0.2315,0.7685	-11635.18
0.2333,0.7667	-11634.77
0.2395,0.7605	-11634.31
0.2332,0.7668	-11634.79
0.2333,0.7667	-11634.78
0.2382,0.7618	-11634.29
0.2386,0.7614	-11634.29
0.2317,0.7683	-11635.12
0.2366,0.7634	-11634.36
0.2340,0.7660	-11634.66
0.2254,0.7746	-11637.39
0.2399,0.7601	-11634.32
0.2416,0.7584	-11634.46
0.2437,0.7563	-11634.76
0.2393,0.7607	-11634.30
0.2444,0.7556	-11634.89
0.2476,0.7524	-11635.69
0.2320,0.7680	-11635.06
0.2389,0.7611	-11634.29
0.2340,0.7660	-11634.65
0.2353,0.7647	-11634.47
0.2449,0.7551	-11634.99
0.2366,0.7634	-11634.36
0.2392,0.7608	-11634.30
0.2367,0.7633	-11634.35
0.2358,0.7642	-11634.42
0.2435,0.7565	-11634.72
0.2351,0.7649	-11634.50
0.2462,0.7538	-11635.31
0.2403,0.7597	-11634.34
0.2345,0.7655	-11634.57
0.2361,0.7639	-11634.40
0.2415,0.7585	-11634.45
0.2363,0.7637	-11634.38
0.2331,0.7669	-11634.82
0.2420,0.7580	-11634.50
0.2444,0.7556	-11634.89
0.2431,0.7569	-11634.65
0.2393,0.7607	-11634.30
0.2396,0.7604	-11634.31
0.2448,0.7552	-11634.96
0.2372,0.7628	-11634.32
0.2277,0.7723	-11636.38
0.2367,0.7633	-11634.35
0.2445,0.7555	-11634.91
0.2311,0.7689	-11635.28
0.2427,0.7573	-11634.60
0.2401,0.7599	-11634.33
0.2449,0.7551	-11634.99
0.2403,0.7597	-11634.35
0.2427,0.7573	-11634.59
0.2341,0.7659	-11634.64
0.2402,0.7598	-11634.34
0.2378,0.7622	-11634.30
0.2380,0.7620	-11634.30
0.2367,0.7633	-11634.35
0.2488,0.7512	-11636.09
0.2373,0.7627	-11634.32
0.2373,0.7627	-11634.32
0.2410,0.7590	-11634.40
0.2361,0.7639	-11634.40
0.2472,0.7528	-11635.57
0.2396,0.7604	-11634.31
0.2349,0.7651	-11634.52
0.2369,0.7631	-11634.34
0.2351,0.7649	-11634.50
0.2350,0.7650	-11634.51
0.2335,0.7665	-11634.75
0.2442,0.7558	-11634.84
0.2447,0.7553	-11634.96
0.2504,0.7496	-11636.69
0.2354,0.7646	-11634.47
0.2361,0.7639	-11634.40
0.2368,0.7632	-11634.34
0.2352,0.7648	-11634.49
0.2343,0.7657	-11634.61
0.2439,0.7561	-11634.80
0.2444,0.7556	-11634.89
0.2301,0.7699	-11635.56
0.2403,0.7597	-11634.35
0.2353,0.7647	-11634.48
0.2415,0.7585	-11634.45
0.2386,0.7614	-11634.29
0.2235,0.7765	-11638.38
0.2381,0.7619	-11634.30
0.2357,0.7643	-11634.43
0.2322,0.7678	-11635.00
0.2411,0.7589	-11634.41
0.2355,0.7645	-11634.46
0.2469,0.7531	-11635.50
0.2360,0.7640	-11634.40
0.2397,0.7603	-11634.31
0.2501,0.7499	-11636.60
0.2303,0.7697	-11635.51
0.2370,0.7630	-11634.33
0.2487,0.7513	-11636.08
0.2302,0.7698	-11635.54
0.2323,0.7677	-11634.98
0.2387,0.7613	-11634.29
0.2425,0.7575	-11634.56
0.2518,0.7482	-11637.28
0.2441,0.7559	-11634.83
0.2477,0.7523	-11635.75
0.2339,0.7661	-11634.68
0.2387,0.7613	-11634.29
0.2393,0.7607	-11634.30
0.2373,0.7627	-11634.32
0.2443,0.7557	-11634.88
0.2452,0.7548	-11635.06
0.2461,0.7539	-11635.29
0.2259,0.7741	-11637.16
0.2365,0.7635	-11634.37
0.2361,0.7639	-11634.39
0.2381,0.7619	-11634.29
0.2299,0.7701	-11635.62
0.2423,0.7577	-11634.54
0.2336,0.7664	-11634.72
0.2400,0.7600	-11634.33
0.2365,0.7635	-11634.36
0.2356,0.7644	-11634.45
0.2480,0.7520	-11635.84
0.2378,0.7622	-11634.30
0.2408,0.7592	-11634.38
0.2374,0.7626	-11634.32
0.2305,0.7695	-11635.44
0.2376,0.7624	-11634.31
0.2292,0.7708	-11635.84
0.2351,0.7649	-11634.50
0.2363,0.7637	-11634.38
0.2359,0.7641	-11634.42
0.2369,0.7631	-11634.34
0.2470,0.7530	-11635.54
0.2367,0.7633	-11634.35
0.2331,0.7669	-11634.82
0.2332,0.7668	-11634.79
0.2508,0.7492	-11636.85
0.2376,0.7624	-11634.31
0.2366,0.7634	-11634.36
0.2364,0.7636	-11634.37
0.2404,0.7596	-11634.35
0.2324,0.7676	-11634.97
0.2436,0.7564	-11634.74
0.2423,0.7577	-11634.53
0.2397,0.7603	-11634.32
0.2346,0.7654	-11634.57
0.2319,0.7681	-11635.08
0.2300,0.7700	-11635.58
0.2365,0.7635	-11634.37
0.2392,0.7608	-11634.30
0.2303,0.7697	-11635.50
0.2396,0.7604	-11634.31
0.2451,0.7549	-11635.04
0.2404,0.7596	-11634.35
0.2393,0.7607	-11634.30
0.2392,0.7608	-11634.30
0.2448,0.7552	-11634.97
0.2381,0.7619	-11634.29
0.2444,0.7556	-11634.88
0.2408,0.7592	-11634.38
0.2352,0.7648	-11634.49
0.2455,0.7545	-11635.13
0.2409,0.7591	-11634.39
0.2444,0.7556	-11634.90
0.2373,0.7627	-11634.32
0.2484,0.7516	-11635.95
0.2432,0.7568	-11634.66
0.2383,0.7617	-11634.29
0.2364,0.7636	-11634.37
0.2416,0.7584	-11634.46
0.2403,0.7597	-11634.35
0.2384,0.7616	-11634.29
0.2308,0.7692	-11635.36
0.2377,0.7623	-11634.30
0.2341,0.7659	-11634.65
0.2408,0.7592	-11634.38
0.2309,0.7691	-11635.34
0.2413,0.7587	-11634.43
0.2400,0.7600	-11634.33
0.2408,0.7592	-11634.38
0.2421,0.7579	-11634.52
0.2405,0.7595	-11634.36
0.2427,0.7573	-11634.60
0.2369,0.7631	-11634.34
0.2407,0.7593	-11634.38
0.2366,0.7634	-11634.36
0.2365,0.7635	-11634.36
0.2365,0.7635	-11634.36
0.2368,0.7632	-11634.34
0.2359,0.7641	-11634.41
0.2369,0.7631	-11634.34
0.2390,0.7610	-11634.30
0.2330,0.7670	-11634.84
0.2431,0.7569	-11634.65
0.2498,0.7502	-11636.46
0.2348,0.7652	-11634.54
0.2419,0.7581	-11634.49
0.2263,0.7737	-11637.01
0.2412,0.7588	-11634.42
0.2359,0.7641	-11634.42
0.2473,0.7527	-11635.63
0.2325,0.7675	-11634.93
0.2431,0.7569	-11634.66
0.2365,0.7635	-11634.37
0.2438,0.7562	-11634.76
0.2346,0.7654	-11634.57
0.2433,0.7567	-11634.69
0.2391,0.7609	-11634.30
0.2362,0.7638	-11634.38
0.2380,0.7620	-11634.30
0.2405,0.7595	-11634.36
0.2318,0.7682	-11635.10
0.2364,0.7636	-11634.37
0.2393,0.7607	-11634.30
0.2440,0.7560	-11634.80
0.2381,0.7619	-11634.30
0.2389,0.7611	-11634.29
0.2283,0.7717	-11636.19
0.2381,0.7619	-11634.29
0.2367,0.7633	-11634.35
0.2400,0.7600	-11634.33
0.2539,0.7461	-11638.32
0.2408,0.7592	-11634.38
0.2344,0.7656	-11634.59
0.2431,0.7569	-11634.66
0.2332,0.7668	-11634.80
0.2338,0.7662	-11634.69
0.2435,0.7565	-11634.72
0.2424,0.7576	-11634.56
0.2437,0.7563	-11634.76
0.2424,0.7576	-11634.55
0.2362,0.7638	-11634.39
0.2375,0.7625	-11634.31
0.2502,0.7498	-11636.63
0.2437,0.7563	-11634.75
0.2304,0.7696	-11635.48
0.2422,0.7578	-11634.53
0.2409,0.7591	-11634.39
0.2390,0.7610	-11634.30
0.2334,0.7666	-11634.76
0.2357,0.7643	-11634.44
0.2367,0.7633	-11634.35
0.2351,0.7649	-11634.49
0.2388,0.7612	-11634.29
0.2398,0.7602	-11634.32
0.2325,0.7675	-11634.94
0.2430,0.7570	-11634.64
0.2371,0.7629	-11634.33
0.2495,0.7505	-11636.34
0.2329,0.7671	-11634.86
0.2417,0.7583	-11634.47
0.2322,0.7678	-11635.01
0.2422,0.7578	-11634.52
0.2396,0.7604	-11634.31
0.2410,0.7590	-11634.40
0.2332,0.7668	-11634.81
0.2367,0.7633	-11634.35
0.2405,0.7595	-11634.36
0.2424,0.7576	-11634.55
0.2391,0.7609	-11634.30
0.2395,0.7605	-11634.31
0.2341,0.7659	-11634.64
0.2357,0.7643	-11634.44
0.2372,0.7628	-11634.32
0.2244,0.7756	-11637.91
0.2350,0.7650	-11634.51
0.2369,0.7631	-11634.34
0.2446,0.7554	-11634.93
0.2329,0.7671	-11634.85
0.2413,0.7587	-11634.42
0.2393,0.7607	-11634.30
0.2404,0.7596	-11634.35
0.2436,0.7564	-11634.73
0.2329,0.7671	-11634.86
0.2425,0.7575	-11634.56
0.2423,0.7577	-11634.53
0.2402,0.7598	-11634.34
0.2427,0.7573	-11634.59
0.2405,0.7595	-11634.36
0.2390,0.7610	-11634.30
0.2400,0.7600	-11634.33
0.2416,0.7584	-11634.45
0.2360,0.7640	-11634.40
0.2375,0.7625	-11634.31
0.2322,0.7678	-11635.01
0.2445,0.7555	-11634.91
0.2361,0.7639	-11634.40
0.2445,0.7555	-11634.90
0.2397,0.7603	-11634.32
0.2340,0.7660	-11634.66
0.2345,0.7655	-11634.58
0.2498,0.7502	-11636.46
0.2395,0.7605	-11634.31
0.2483,0.7517	-11635.93
0.2386,0.7614	-11634.29
0.2326,0.7674	-11634.91
0.2376,0.7624	-11634.31
0.2422,0.7578	-11634.53
0.2388,0.7612	-11634.29
0.2353,0.7647	-11634.47
0.2326,0.7674	-11634.92
0.2386,0.7614	-11634.29
0.2411,0.7589	-11634.41
0.2349,0.7651	-11634.53
0.2392,0.7608	-11634.30
0.2342,0.7658	-11634.62
0.2427,0.7573	-11634.59
0.2341,0.7659	-11634.64
0.2402,0.7598	-11634.34
0.2375,0.7625	-11634.31
0.2402,0.7598	-11634.34
0.2416,0.7584	-11634.45
0.2408,0.7592	-11634.38
0.2410,0.7590	-11634.39
0.2449,0.7551	-11634.99
0.2441,0.7559	-11634.82
0.2395,0.7605	-11634.31
0.2307,0.7693	-11635.39
0.2354,0.7646	-11634.47
0.2405,0.7595	-11634.36
0.2365,0.7635	-11634.37
0.2406,0.7594	-11634.36
0.2534,0.7466	-11638.04
0.2376,0.7624	-11634.31
0.2396,0.7604	-11634.31
0.2411,0.7589	-11634.41
0.2400,0.7600	-11634.33
0.2384,0.7616	-11634.29
0.2390,0.7610	-11634.30
0.2400,0.7600	-11634.33
0.2563,0.7437	-11639.62
0.2358,0.7642	-11634.42
0.2400,0.7600	-11634.33
0.2413,0.7587	-11634.42
0.2357,0.7643	-11634.43
0.2479,0.7521	-11635.80
0.2368,0.7632	-11634.34
0.2340,0.7660	-11634.66
0.2324,0.7676	-11634.95
0.2452,0.7548	-11635.05
0.2427,0.7573	-11634.60
0.2388,0.7612	-11634.29
0.2397,0.7603	-11634.32
0.2425,0.7575	-11634.56
0.2423,0.7577	-11634.54
0.2516,0.7484	-11637.19
0.2479,0.7521	-11635.80
0.2395,0.7605	-11634.31
0.2384,0.7616	-11634.29
0.2347,0.7653	-11634.55
0.2436,0.7564	-11634.74
0.2495,0.7505	-11636.35
0.2462,0.7538	-11635.31
0.2286,0.7714	-11636.07
0.2379,0.7621	-11634.30
0.2373,0.7627	-11634.32
0.2371,0.7629	-11634.33
0.2416,0.7584	-11634.45
0.2374,0.7626	-11634.31
0.2319,0.7681	-11635.07
0.2315,0.7685	-11635.19
0.2359,0.7641	-11634.41
0.2476,0.7524	-11635.72
0.2318,0.7682	-11635.10
0.2402,0.7598	-11634.34
0.2318,0.7682	-11635.11
0.2467,0.7533	-11635.45
0.2337,0.7663	-11634.71
0.2366,0.7634	-11634.36
0.2400,0.7600	-11634.33
0.2304,0.7696	-11635.47
0.2514,0.7486	-11637.10
0.2534,0.7466	-11638.06
0.2365,0.7635	-11634.37
0.2410,0.7590	-11634.40
0.2379,0.7621	-11634.30
0.2308,0.7692	-11635.37
0.2378,0.7622	-11634.30
0.2405,0.7595	-11634.36
0.2354,0.7646	-11634.47
0.2289,0.7711	-11635.97
0.2410,0.7590	-11634.39
0.2358,0.7642	-11634.42
0.2455,0.7545	-11635.14
0.2464,0.7536	-11635.37
0.2438,0.7562	-11634.78
